EEG 1,EEG 2,EEG 3,EEG 4,EEG 5,EEG 6,EEG 7,EEG 8,Accelerometer X,Accelerometer Y,Accelerometer Z,Gyroscope X,Gyroscope Y,Gyroscope Z,Battery Level,Counter,Validation Indicator
6.285,12.922,10.218,10.934,14.216,16.572,9.166,9.930,-0.169,1.002,0.094,0.977,2.319,0.916,60.000,20057.000,1.000
6.249,13.560,9.456,10.005,15.164,17.477,9.709,10.771,-0.167,1.002,0.095,0.977,2.167,0.977,60.000,20058.000,1.000
4.839,13.530,7.485,8.014,15.619,18.446,10.776,11.928,-0.167,1.000,0.094,0.916,1.984,0.977,60.000,20059.000,1.000
2.675,13.398,5.617,6.478,15.497,19.977,12.357,14.045,-0.167,1.001,0.095,0.824,1.984,1.007,60.000,20060.000,1.000
1.108,13.664,4.808,6.005,15.356,21.903,14.457,16.679,-0.165,1.000,0.094,0.610,1.831,1.038,60.000,20061.000,1.000
1.161,14.255,4.978,5.991,15.691,23.339,16.741,18.547,-0.165,0.999,0.094,0.580,1.709,1.007,60.000,20062.000,1.000
2.750,14.812,5.625,5.948,16.312,23.643,18.623,18.975,-0.166,1.001,0.094,0.610,1.556,1.099,60.000,20063.000,1.000
4.978,15.281,6.670,6.417,16.626,23.111,19.837,18.677,-0.166,0.999,0.096,0.549,1.465,1.038,60.000,20064.000,1.000
6.858,15.779,8.149,7.998,16.242,22.232,20.418,18.602,-0.164,0.997,0.091,0.549,1.282,1.007,60.000,20065.000,1.000
7.770,16.079,9.416,10.006,15.250,20.776,20.345,18.545,-0.166,0.996,0.092,0.549,1.160,0.946,60.000,20066.000,1.000
7.729,16.009,9.607,11.117,14.300,18.563,19.948,17.784,-0.165,0.994,0.096,0.641,1.068,1.038,60.000,20067.000,1.000
7.358,16.164,8.905,11.187,14.316,16.585,20.164,16.659,-0.164,0.993,0.095,0.641,0.946,0.977,60.000,20068.000,1.000
7.176,17.328,8.389,11.286,15.585,16.184,21.502,16.335,-0.165,0.993,0.095,0.671,0.793,1.007,60.000,20069.000,1.000
6.908,19.085,8.420,11.743,17.183,17.238,23.024,16.923,-0.163,0.992,0.094,0.732,0.732,0.885,60.000,20070.000,1.000
5.832,19.719,7.932,11.195,17.671,17.919,23.010,16.796,-0.160,0.994,0.096,0.793,0.671,1.007,60.000,20071.000,1.000
3.761,17.818,5.811,8.245,16.394,16.508,20.671,14.329,-0.160,0.991,0.091,0.793,0.549,0.916,60.000,20072.000,1.000
1.392,13.768,2.612,3.674,13.938,13.191,16.898,9.976,-0.159,0.993,0.096,0.885,0.519,0.946,60.000,20073.000,1.000
-0.284,9.455,0.367,0.244,11.464,9.819,13.359,6.074,-0.160,0.995,0.099,1.068,0.397,1.038,60.000,20074.000,1.000
-0.764,6.599,0.568,0.082,9.829,8.044,11.147,4.558,-0.158,0.995,0.097,1.312,0.244,0.946,60.000,20075.000,1.000
-0.239,5.565,2.688,2.681,9.282,7.987,10.286,5.271,-0.159,0.998,0.100,1.312,0.275,1.068,60.000,20076.000,1.000
0.777,5.710,4.973,5.779,9.671,8.733,10.188,6.701,-0.158,0.996,0.098,1.465,0.244,0.977,60.000,20077.000,1.000
1.823,6.435,6.383,7.821,10.707,9.643,10.329,7.918,-0.157,0.998,0.097,1.312,0.244,0.854,60.000,20078.000,1.000
2.558,7.557,7.264,8.942,11.987,10.731,10.449,9.169,-0.156,0.998,0.094,1.495,0.153,0.854,60.000,20079.000,1.000
2.728,8.847,8.172,9.681,13.041,11.961,10.413,10.694,-0.157,0.998,0.096,1.465,0.153,0.946,60.000,20080.000,1.000
2.318,9.786,8.779,9.699,13.632,12.818,10.259,11.832,-0.155,0.999,0.096,1.373,0.183,0.824,60.000,20081.000,1.000
1.805,10.147,8.489,8.474,14.024,12.954,10.409,11.849,-0.154,1.001,0.099,1.465,0.183,0.854,60.000,20082.000,1.000
1.972,10.477,7.708,6.763,14.737,12.926,11.464,11.180,-0.154,1.000,0.099,1.495,0.153,0.671,60.000,20083.000,1.000
3.249,11.560,7.738,6.376,15.956,13.802,13.617,11.158,-0.153,1.000,0.099,1.404,0.153,0.641,60.000,20084.000,1.000
5.359,13.441,9.295,8.249,17.383,15.993,16.384,12.472,-0.152,0.999,0.098,1.312,0.244,0.702,60.000,20085.000,1.000
7.532,15.123,11.422,11.147,18.540,18.662,18.907,14.287,-0.152,1.001,0.098,1.404,0.244,0.732,60.000,20086.000,1.000
8.902,15.308,12.205,12.685,18.979,20.364,20.408,15.152,-0.151,1.002,0.094,1.251,0.275,0.671,60.000,20087.000,1.000
9.035,13.666,10.764,11.735,18.437,20.409,20.586,14.715,-0.149,1.001,0.094,1.251,0.397,0.641,60.000,20088.000,1.000
8.375,11.373,8.316,9.524,17.179,19.599,19.865,14.201,-0.150,1.000,0.092,1.190,0.458,0.549,60.000,20089.000,1.000
7.912,10.081,6.861,8.070,16.048,19.349,19.133,14.889,-0.150,0.999,0.095,1.099,0.610,0.427,60.000,20090.000,1.000
8.222,10.272,6.982,7.841,15.741,19.959,18.884,16.381,-0.149,1.000,0.098,1.007,0.702,0.366,60.000,20091.000,1.000
8.955,10.854,7.398,7.508,15.989,20.044,18.532,16.848,-0.152,0.998,0.096,1.068,0.732,0.305,60.000,20092.000,1.000
9.322,10.467,6.761,5.947,15.727,17.982,16.903,15.059,-0.151,0.999,0.095,0.977,0.885,0.275,60.000,20093.000,1.000
8.885,8.879,5.254,3.698,14.168,13.712,13.561,11.688,-0.149,0.999,0.095,1.007,0.824,0.183,60.000,20094.000,1.000
7.793,6.931,4.011,2.008,11.566,8.816,9.500,8.386,-0.148,0.998,0.095,0.977,1.068,0.031,60.000,20095.000,1.000
6.583,5.597,3.607,1.193,9.118,5.246,6.679,6.186,-0.149,0.998,0.095,0.946,1.160,0.031,60.000,20096.000,1.000
5.921,5.310,3.735,0.662,8.064,4.056,6.651,5.240,-0.148,0.999,0.095,0.916,1.160,-0.092,60.000,20097.000,1.000
6.160,5.747,3.942,0.110,8.506,4.805,9.156,5.428,-0.150,0.998,0.098,0.824,1.221,-0.153,60.000,20098.000,1.000
7.052,6.119,4.151,-0.012,9.284,6.064,12.278,6.632,-0.152,0.998,0.098,0.793,1.373,-0.305,60.000,20099.000,1.000
8.062,5.773,4.479,0.745,9.239,6.592,14.149,8.446,-0.153,0.995,0.096,0.854,1.434,-0.397,60.000,20100.000,1.000
8.901,4.540,4.738,1.961,8.302,5.971,14.182,9.970,-0.150,0.995,0.095,0.916,1.495,-0.610,60.000,20101.000,1.000
9.630,2.699,4.496,2.693,7.254,4.536,12.907,10.382,-0.151,0.996,0.093,0.854,1.495,-0.702,60.000,20102.000,1.000
10.375,0.843,3.757,2.663,6.696,3.116,11.181,9.861,-0.151,0.997,0.092,0.885,1.678,-0.824,60.000,20103.000,1.000
11.031,-0.409,3.109,2.535,6.474,2.574,9.592,9.484,-0.151,0.996,0.094,0.732,1.740,-0.824,60.000,20104.000,1.000
11.224,-0.865,2.837,2.700,5.993,3.157,8.283,9.859,-0.153,0.997,0.094,0.793,1.709,-0.885,60.000,20105.000,1.000
10.591,-0.931,2.221,2.287,4.896,4.272,7.176,10.183,-0.152,0.997,0.094,0.793,1.709,-0.977,60.000,20106.000,1.000
9.149,-1.140,0.272,0.108,3.360,5.103,6.337,9.208,-0.153,0.997,0.094,0.732,1.740,-1.068,60.000,20107.000,1.000
7.386,-1.506,-2.851,-3.519,1.860,5.467,6.088,6.989,-0.153,0.997,0.096,0.732,1.801,-1.068,60.000,20108.000,1.000
5.921,-1.575,-5.667,-6.623,0.730,5.817,6.654,5.020,-0.152,0.998,0.095,0.641,1.740,-1.129,60.000,20109.000,1.000
5.057,-1.170,-6.834,-7.575,-0.005,6.395,7.768,4.488,-0.151,0.998,0.098,0.702,1.740,-1.221,60.000,20110.000,1.000
4.687,-0.756,-6.487,-6.785,-0.443,6.680,8.695,4.870,-0.151,0.999,0.099,0.824,1.770,-1.190,60.000,20111.000,1.000
4.534,-0.917,-5.851,-6.031,-0.676,5.838,8.602,4.555,-0.153,0.999,0.095,0.641,1.770,-1.160,60.000,20112.000,1.000
4.399,-1.691,-5.759,-6.396,-0.914,3.641,6.969,2.674,-0.156,0.998,0.096,0.549,1.801,-1.190,60.000,20113.000,1.000
4.264,-2.580,-5.916,-7.312,-1.441,0.786,3.948,-0.039,-0.158,0.998,0.101,0.519,1.678,-1.282,60.000,20114.000,1.000
4.268,-3.169,-5.713,-7.702,-2.256,-1.738,0.384,-2.256,-0.158,0.998,0.099,0.397,1.709,-1.190,60.000,20115.000,1.000
4.577,-3.557,-5.302,-7.533,-2.926,-3.474,-2.654,-3.526,-0.160,0.997,0.098,0.275,1.617,-1.221,60.000,20116.000,1.000
5.279,-4.033,-5.404,-7.665,-2.964,-4.494,-4.452,-4.320,-0.159,0.996,0.099,0.275,1.556,-1.282,60.000,20117.000,1.000
6.294,-4.513,-6.177,-8.366,-2.386,-4.826,-4.956,-4.923,-0.160,0.997,0.098,0.275,1.526,-1.312,60.000,20118.000,1.000
7.296,-4.611,-6.860,-8.782,-1.827,-4.381,-4.811,-5.003,-0.162,0.997,0.099,0.122,1.526,-1.282,60.000,20119.000,1.000
7.868,-4.186,-6.689,-8.098,-1.934,-3.387,-4.903,-4.389,-0.162,0.998,0.096,0.153,1.343,-1.373,60.000,20120.000,1.000
7.869,-3.551,-5.777,-6.622,-2.639,-2.477,-5.610,-3.642,-0.164,0.999,0.097,-0.031,1.099,-1.373,60.000,20121.000,1.000
7.654,-3.089,-4.777,-5.195,-3.217,-2.167,-6.509,-3.400,-0.164,0.996,0.099,-0.122,0.977,-1.404,60.000,20122.000,1.000
7.958,-2.699,-3.738,-3.729,-2.982,-2.254,-6.842,-3.273,-0.166,0.994,0.100,-0.244,0.916,-1.526,60.000,20123.000,1.000
9.432,-1.831,-1.842,-1.056,-1.847,-1.975,-6.169,-2.002,-0.164,0.994,0.103,-0.122,0.793,-1.373,60.000,20124.000,1.000
12.093,-0.246,1.373,3.337,-0.327,-0.983,-4.636,0.969,-0.164,0.992,0.100,-0.031,0.610,-1.434,60.000,20125.000,1.000
15.156,1.425,4.871,7.903,0.873,0.041,-2.815,4.381,-0.165,0.993,0.100,-0.122,0.488,-1.526,60.000,20126.000,1.000
17.443,2.133,6.721,10.051,1.259,0.020,-1.374,6.088,-0.164,0.993,0.102,-0.092,0.397,-1.434,60.000,20127.000,1.000
18.019,1.357,5.902,8.661,0.678,-1.389,-0.775,5.133,-0.163,0.993,0.103,-0.122,0.183,-1.465,60.000,20128.000,1.000
16.713,-0.434,3.283,5.185,-0.641,-3.442,-1.020,2.659,-0.163,0.993,0.102,-0.092,0.092,-1.617,60.000,20129.000,1.000
14.293,-2.169,0.710,2.147,-2.031,-4.994,-1.584,0.678,-0.162,0.994,0.098,-0.061,0.000,-1.678,60.000,20130.000,1.000
12.150,-2.939,-0.627,0.924,-2.558,-5.387,-1.652,0.213,-0.165,0.994,0.102,-0.031,-0.153,-1.648,60.000,20131.000,1.000
11.668,-2.268,-0.538,1.379,-1.437,-4.497,-0.434,1.081,-0.166,0.995,0.099,0.000,-0.153,-1.709,60.000,20132.000,1.000
13.573,0.218,1.208,3.291,1.638,-2.057,2.612,3.178,-0.166,0.993,0.105,0.000,-0.397,-1.648,60.000,20133.000,1.000
17.451,4.650,5.187,6.970,6.193,2.188,7.290,6.835,-0.165,0.992,0.104,0.000,-0.427,-1.556,60.000,20134.000,1.000
21.639,9.821,10.738,11.761,10.561,7.000,11.897,11.187,-0.164,0.994,0.103,0.031,-0.610,-1.678,60.000,20135.000,1.000
23.810,12.785,14.758,14.799,12.121,9.101,13.402,13.133,-0.164,0.995,0.101,0.092,-0.732,-1.740,60.000,20136.000,1.000
22.221,10.667,13.552,12.803,8.874,5.455,9.390,9.480,-0.163,0.994,0.105,0.183,-0.854,-1.740,60.000,20137.000,1.000
16.880,3.186,6.300,5.428,1.118,-3.733,0.222,0.295,-0.163,0.994,0.104,0.122,-1.007,-1.678,60.000,20138.000,1.000
9.614,-6.917,-3.931,-3.961,-8.569,-14.867,-10.895,-10.676,-0.165,0.994,0.106,0.061,-1.068,-1.740,60.000,20139.000,1.000
2.933,-15.915,-12.800,-11.167,-16.943,-23.770,-20.026,-19.115,-0.166,0.991,0.108,0.061,-1.099,-1.709,60.000,20140.000,1.000
-1.376,-21.416,-17.838,-14.369,-21.720,-28.400,-24.746,-23.214,-0.168,0.992,0.104,0.092,-1.251,-1.587,60.000,20141.000,1.000
-2.940,-23.111,-19.128,-14.420,-22.341,-29.189,-24.892,-23.802,-0.168,0.993,0.105,0.214,-1.312,-1.617,60.000,20142.000,1.000
-2.568,-22.084,-17.896,-12.838,-19.963,-27.673,-22.023,-22.443,-0.169,0.992,0.102,0.336,-1.495,-1.556,60.000,20143.000,1.000
-1.477,-19.808,-15.214,-10.303,-16.718,-25.266,-18.366,-20.124,-0.170,0.993,0.102,0.305,-1.587,-1.434,60.000,20144.000,1.000
-0.493,-17.520,-11.843,-6.989,-14.390,-22.934,-15.691,-17.459,-0.170,0.995,0.104,0.366,-1.770,-1.343,60.000,20145.000,1.000
0.347,-15.903,-8.596,-3.474,-13.384,-21.262,-14.520,-15.194,-0.170,0.997,0.106,0.305,-1.892,-1.343,60.000,20146.000,1.000
1.508,-15.026,-6.295,-0.640,-12.988,-20.346,-14.195,-13.906,-0.169,0.998,0.104,0.275,-1.984,-1.404,60.000,20147.000,1.000
3.184,-14.622,-5.266,1.193,-12.568,-19.838,-13.847,-13.341,-0.168,0.998,0.109,0.397,-2.197,-1.282,60.000,20148.000,1.000
4.854,-14.428,-5.029,2.560,-12.177,-19.306,-13.240,-12.558,-0.170,0.997,0.107,0.336,-2.289,-1.099,60.000,20149.000,1.000
5.756,-14.186,-4.682,4.069,-11.943,-18.509,-12.575,-10.850,-0.170,0.997,0.105,0.366,-2.319,-1.068,60.000,20150.000,1.000
5.638,-13.594,-3.691,5.533,-11.363,-17.417,-11.781,-8.428,-0.170,0.997,0.107,0.336,-2.380,-0.977,60.000,20151.000,1.000
4.932,-12.386,-2.097,6.310,-9.585,-15.941,-10.287,-5.998,-0.170,0.996,0.106,0.336,-2.441,-0.946,60.000,20152.000,1.000
4.333,-10.384,0.075,6.507,-6.300,-13.673,-7.529,-3.766,-0.169,0.998,0.105,0.458,-2.350,-0.885,60.000,20153.000,1.000
4.160,-7.753,2.998,7.076,-2.364,-10.473,-3.883,-1.429,-0.167,0.995,0.105,0.244,-2.380,-0.854,60.000,20154.000,1.000
4.041,-5.392,6.205,8.321,0.494,-7.491,-1.021,0.664,-0.165,0.995,0.106,0.336,-2.380,-0.854,60.000,20155.000,1.000
3.363,-4.518,8.269,9.047,0.936,-6.700,-0.685,1.177,-0.165,0.995,0.105,0.305,-2.441,-0.763,60.000,20156.000,1.000
2.183,-5.368,8.126,7.971,-0.751,-8.827,-2.890,-0.705,-0.164,0.995,0.105,0.366,-2.319,-0.671,60.000,20157.000,1.000
1.487,-6.551,6.601,5.672,-2.784,-12.139,-5.690,-3.788,-0.161,0.994,0.105,0.488,-2.197,-0.610,60.000,20158.000,1.000
2.331,-6.150,5.874,4.306,-3.368,-13.759,-6.791,-5.599,-0.159,0.993,0.106,0.580,-2.014,-0.519,60.000,20159.000,1.000
4.809,-3.485,7.298,5.238,-1.949,-12.150,-5.262,-4.706,-0.158,0.991,0.107,0.580,-1.862,-0.519,60.000,20160.000,1.000
8.035,0.455,10.191,7.603,0.871,-8.118,-1.829,-1.971,-0.158,0.992,0.104,0.763,-1.709,-0.580,60.000,20161.000,1.000
10.973,4.186,12.887,9.486,4.161,-3.547,2.010,0.587,-0.157,0.993,0.103,1.038,-1.495,-0.458,60.000,20162.000,1.000
13.055,7.012,14.588,10.088,7.178,0.363,4.932,1.838,-0.156,0.995,0.104,0.946,-1.343,-0.427,60.000,20163.000,1.000
14.211,9.169,15.830,10.201,9.426,3.542,6.254,2.171,-0.154,0.993,0.105,0.946,-1.068,-0.366,60.000,20164.000,1.000
14.649,11.042,17.330,10.719,10.682,6.262,6.034,2.299,-0.155,0.993,0.104,0.977,-0.793,-0.305,60.000,20165.000,1.000
14.664,12.536,18.827,11.302,11.059,8.433,4.915,2.079,-0.156,0.993,0.103,1.007,-0.458,-0.275,60.000,20166.000,1.000
14.440,13.200,19.330,10.862,10.847,9.783,3.730,0.904,-0.156,0.993,0.105,1.068,-0.214,-0.427,60.000,20167.000,1.000
14.008,12.875,18.422,9.143,10.240,10.508,3.082,-0.976,-0.155,0.992,0.107,1.129,-0.031,-0.397,60.000,20168.000,1.000
13.435,12.068,16.913,7.297,9.281,11.361,3.160,-2.162,-0.156,0.995,0.105,1.251,0.122,-0.427,60.000,20169.000,1.000
12.808,11.389,15.799,6.499,7.913,12.767,3.646,-1.576,-0.157,0.997,0.106,1.312,0.519,-0.458,60.000,20170.000,1.000
11.834,10.573,14.695,6.218,5.847,13.849,3.639,-0.016,-0.157,0.997,0.108,1.160,0.732,-0.488,60.000,20171.000,1.000
9.764,8.503,11.991,4.570,2.531,12.865,1.987,0.423,-0.157,0.999,0.106,1.160,0.916,-0.519,60.000,20172.000,1.000
6.147,4.497,6.890,0.615,-2.323,8.926,-1.839,-1.366,-0.156,1.001,0.106,1.129,1.160,-0.488,60.000,20173.000,1.000
1.527,-0.692,0.727,-4.383,-8.157,2.988,-7.140,-4.351,-0.158,1.000,0.107,1.099,1.312,-0.458,60.000,20174.000,1.000
-2.873,-5.462,-4.214,-8.394,-13.669,-3.026,-12.372,-6.682,-0.159,0.999,0.108,1.007,1.495,-0.458,60.000,20175.000,1.000
-6.000,-8.539,-6.653,-10.592,-17.297,-7.500,-15.895,-7.438,-0.159,0.998,0.107,0.824,1.648,-0.366,60.000,20176.000,1.000
-7.420,-9.232,-6.574,-11.244,-17.579,-9.218,-16.286,-6.517,-0.159,0.999,0.108,0.763,1.831,-0.336,60.000,20177.000,1.000
-7.249,-7.202,-4.352,-10.401,-13.915,-7.299,-12.911,-3.727,-0.161,0.997,0.105,0.732,1.984,-0.427,60.000,20178.000,1.000
-5.830,-2.788,-0.609,-7.786,-7.548,-2.128,-6.955,0.855,-0.159,0.995,0.107,0.793,2.136,-0.366,60.000,20179.000,1.000
-3.343,2.759,3.496,-3.783,-1.056,4.235,-1.133,5.994,-0.160,0.995,0.105,0.610,2.258,-0.214,60.000,20180.000,1.000
0.337,8.024,6.719,0.307,3.684,9.429,2.367,9.730,-0.159,0.995,0.104,0.458,2.380,-0.153,60.000,20181.000,1.000
5.429,12.497,8.706,3.303,6.682,12.532,3.409,10.899,-0.159,0.996,0.107,0.458,2.533,-0.214,60.000,20182.000,1.000
11.915,16.797,10.399,5.291,9.085,14.445,3.413,10.131,-0.157,0.993,0.108,0.610,2.655,-0.183,60.000,20183.000,1.000
19.280,21.818,13.285,7.451,11.800,16.715,3.774,9.257,-0.157,0.994,0.106,0.702,2.777,-0.153,60.000,20184.000,1.000
26.512,27.640,17.901,10.504,14.906,19.925,4.851,9.582,-0.158,0.992,0.106,0.702,2.869,-0.183,60.000,20185.000,1.000
32.375,33.240,22.935,13.468,17.855,23.118,6.047,10.657,-0.161,0.993,0.102,0.702,3.021,-0.214,60.000,20186.000,1.000
35.852,37.258,26.128,14.402,19.906,24.774,6.507,10.925,-0.159,0.993,0.102,0.824,3.052,-0.061,60.000,20187.000,1.000
36.648,39.218,26.416,12.609,20.645,24.483,5.925,9.654,-0.158,0.993,0.105,0.824,3.021,-0.061,60.000,20188.000,1.000
35.412,40.008,24.909,9.604,20.351,23.543,4.945,7.866,-0.159,0.992,0.105,0.916,3.021,-0.061,60.000,20189.000,1.000
33.263,40.945,23.515,7.560,19.869,23.695,4.756,7.128,-0.159,0.992,0.105,0.885,3.204,-0.061,60.000,20190.000,1.000
30.995,42.426,23.001,7.198,20.057,25.456,6.196,7.846,-0.161,0.993,0.106,0.793,3.174,-0.031,60.000,20191.000,1.000
28.769,43.706,22.801,7.687,21.258,27.912,9.142,9.199,-0.162,0.994,0.103,0.916,3.174,-0.153,60.000,20192.000,1.000
26.547,44.006,22.463,8.406,23.243,30.048,12.836,10.616,-0.162,0.994,0.103,0.885,3.113,-0.153,60.000,20193.000,1.000
24.633,43.606,22.643,10.013,25.643,31.911,16.718,12.665,-0.162,0.995,0.103,0.946,3.143,-0.153,60.000,20194.000,1.000
23.550,43.540,24.229,13.285,28.239,34.195,20.666,16.050,-0.163,0.997,0.104,1.038,3.082,-0.183,60.000,20195.000,1.000
23.331,44.227,26.778,17.283,30.723,36.913,24.455,20.035,-0.164,0.999,0.103,0.916,2.991,-0.336,60.000,20196.000,1.000
23.001,44.697,28.331,19.412,32.248,38.902,27.285,22.485,-0.166,1.001,0.106,0.854,2.869,-0.183,60.000,20197.000,1.000
20.769,43.071,26.761,17.372,31.326,38.488,27.850,21.450,-0.165,1.003,0.106,0.885,2.686,-0.244,60.000,20198.000,1.000
14.981,37.759,21.134,10.780,26.463,34.491,24.910,16.484,-0.167,1.003,0.104,0.793,2.655,-0.183,60.000,20199.000,1.000
5.319,28.446,11.984,0.976,17.351,26.797,18.146,8.502,-0.166,1.001,0.102,0.732,2.533,-0.397,60.000,20200.000,1.000
-6.624,16.382,0.733,-10.154,5.557,16.377,8.650,-1.135,-0.166,0.998,0.105,0.671,2.441,-0.397,60.000,20201.000,1.000
-17.902,4.080,-10.648,-20.646,-5.971,5.159,-1.376,-10.915,-0.167,0.997,0.106,0.671,2.258,-0.397,60.000,20202.000,1.000
-25.532,-5.423,-19.539,-28.163,-14.267,-4.201,-9.511,-18.871,-0.167,0.996,0.104,0.763,2.106,-0.427,60.000,20203.000,1.000
-27.823,-9.811,-23.259,-30.458,-17.685,-9.262,-14.129,-23.019,-0.165,0.997,0.109,0.732,1.923,-0.397,60.000,20204.000,1.000
-24.954,-8.673,-20.702,-26.918,-16.341,-9.190,-14.943,-22.702,-0.166,0.997,0.103,0.885,1.862,-0.427,60.000,20205.000,1.000
-18.637,-3.724,-13.487,-19.532,-11.644,-5.295,-12.811,-19.299,-0.165,0.995,0.103,0.885,1.740,-0.427,60.000,20206.000,1.000
-11.223,2.215,-5.064,-11.739,-5.607,-0.138,-9.225,-15.233,-0.166,0.995,0.103,1.007,1.587,-0.519,60.000,20207.000,1.000
-4.699,6.803,1.663,-5.960,-0.217,4.097,-5.701,-12.107,-0.165,0.992,0.102,1.099,1.465,-0.397,60.000,20208.000,1.000
0.017,9.276,5.919,-2.267,3.282,6.743,-3.114,-9.837,-0.164,0.990,0.101,1.160,1.434,-0.336,60.000,20209.000,1.000
3.049,10.218,8.468,0.498,4.846,8.303,-1.457,-7.554,-0.163,0.988,0.100,1.221,1.343,-0.366,60.000,20210.000,1.000
4.865,10.400,9.945,2.762,5.278,9.182,-0.314,-5.006,-0.164,0.991,0.099,1.251,1.221,-0.275,60.000,20211.000,1.000
5.619,9.999,10.191,3.877,5.330,9.157,0.500,-2.730,-0.162,0.990,0.098,1.434,1.160,-0.275,60.000,20212.000,1.000
5.177,8.888,9.100,3.504,5.116,8.052,0.766,-1.070,-0.162,0.990,0.098,1.434,1.038,-0.214,60.000,20213.000,1.000
3.613,7.304,7.475,2.540,4.369,6.420,0.287,0.428,-0.161,0.991,0.096,1.648,1.038,-0.275,60.000,20214.000,1.000
1.488,5.861,6.514,2.220,3.110,5.232,-0.639,2.350,-0.159,0.991,0.098,1.648,1.007,-0.214,60.000,20215.000,1.000
-0.428,5.004,6.638,2.741,1.944,5.062,-1.208,4.525,-0.160,0.991,0.099,1.801,0.977,-0.183,60.000,20216.000,1.000
-1.598,4.816,7.344,3.361,1.708,5.971,-0.467,6.383,-0.160,0.994,0.096,1.770,1.007,-0.153,60.000,20217.000,1.000
-1.935,5.300,8.138,3.689,2.770,7.967,2.144,7.984,-0.160,0.994,0.093,1.892,0.885,-0.214,60.000,20218.000,1.000
-1.898,6.311,8.921,4.108,4.513,10.826,6.128,9.909,-0.162,0.996,0.096,1.984,0.732,-0.214,60.000,20219.000,1.000
-2.397,7.054,9.296,4.715,5.541,13.369,9.795,11.979,-0.162,0.998,0.096,1.953,0.885,-0.214,60.000,20220.000,1.000
-4.230,6.226,8.208,4.587,4.702,13.781,11.301,12.798,-0.161,1.000,0.095,1.892,0.824,-0.305,60.000,20221.000,1.000
-7.382,3.102,4.868,2.729,2.029,11.197,10.038,11.097,-0.163,0.999,0.097,1.770,0.732,-0.397,60.000,20222.000,1.000
-10.955,-1.538,-0.028,-0.422,-1.323,6.784,6.975,7.380,-0.162,1.000,0.093,1.678,0.671,-0.519,60.000,20223.000,1.000
-13.745,-5.778,-4.384,-2.954,-3.915,2.964,3.803,3.829,-0.163,1.000,0.092,1.587,0.671,-0.519,60.000,20224.000,1.000
-14.962,-8.050,-6.358,-3.244,-4.884,1.475,1.788,2.347,-0.161,0.999,0.095,1.587,0.641,-0.641,60.000,20225.000,1.000
-14.624,-8.283,-5.948,-1.627,-4.302,2.090,1.157,2.815,-0.160,0.999,0.096,1.465,0.580,-0.641,60.000,20226.000,1.000
-13.312,-7.501,-4.622,0.138,-2.833,3.340,1.392,3.663,-0.160,0.997,0.098,1.495,0.519,-0.702,60.000,20227.000,1.000
-11.549,-6.430,-3.478,0.975,-1.071,4.300,1.968,3.959,-0.159,0.997,0.097,1.526,0.519,-0.641,60.000,20228.000,1.000
-9.620,-4.990,-2.420,1.363,0.614,5.154,2.630,4.215,-0.159,0.997,0.094,1.404,0.610,-0.702,60.000,20229.000,1.000
-7.865,-3.122,-1.212,1.991,1.810,6.113,3.155,5.007,-0.160,0.997,0.091,1.312,0.732,-0.732,60.000,20230.000,1.000
-6.726,-1.494,-0.553,2.394,2.131,6.573,3.224,5.665,-0.159,0.995,0.093,1.404,0.763,-0.732,60.000,20231.000,1.000
-6.403,-1.035,-1.495,1.542,1.565,5.734,2.629,4.956,-0.159,0.995,0.095,1.465,0.763,-0.793,60.000,20232.000,1.000
-6.624,-1.976,-4.006,-0.492,0.489,3.721,1.497,2.785,-0.160,0.995,0.095,1.343,0.824,-0.854,60.000,20233.000,1.000
-6.856,-3.624,-6.658,-2.186,-0.696,1.582,0.162,0.509,-0.161,0.996,0.094,1.312,0.946,-0.885,60.000,20234.000,1.000
-6.782,-5.167,-8.057,-2.244,-1.857,0.051,-1.253,-0.703,-0.161,0.995,0.092,1.160,1.007,-0.916,60.000,20235.000,1.000
-6.509,-6.447,-8.265,-1.222,-3.047,-1.287,-2.970,-1.296,-0.162,0.997,0.096,1.190,0.885,-1.007,60.000,20236.000,1.000
-6.264,-7.726,-8.384,-0.828,-4.219,-3.264,-5.143,-2.589,-0.166,0.998,0.095,1.221,0.824,-1.282,60.000,20237.000,1.000
-6.006,-8.941,-8.927,-1.715,-5.119,-5.830,-7.408,-4.865,-0.164,0.999,0.094,1.190,0.793,-1.282,60.000,20238.000,1.000
-5.412,-9.500,-9.118,-2.563,-5.398,-7.851,-8.926,-6.791,-0.165,1.000,0.094,1.007,0.824,-1.495,60.000,20239.000,1.000
-4.247,-8.945,-8.061,-1.681,-4.867,-8.305,-8.982,-6.965,-0.166,1.000,0.093,0.946,0.763,-1.556,60.000,20240.000,1.000
-2.821,-7.768,-6.312,0.821,-3.854,-7.650,-7.790,-5.767,-0.166,1.002,0.094,0.671,0.671,-1.587,60.000,20241.000,1.000
-2.033,-7.339,-5.733,2.979,-3.314,-7.706,-6.672,-5.184,-0.164,1.001,0.095,0.610,0.641,-1.770,60.000,20242.000,1.000
-2.804,-8.770,-7.650,3.040,-4.342,-9.977,-7.149,-6.737,-0.165,1.002,0.095,0.458,0.519,-1.740,60.000,20243.000,1.000
-5.417,-11.951,-11.557,1.021,-7.375,-14.275,-9.721,-10.035,-0.164,1.004,0.100,0.244,0.488,-1.740,60.000,20244.000,1.000
-9.323,-15.788,-15.815,-1.869,-11.726,-19.081,-13.485,-13.496,-0.166,1.004,0.098,0.183,0.549,-1.617,60.000,20245.000,1.000
-13.449,-19.126,-19.180,-4.673,-15.842,-22.858,-16.775,-15.901,-0.165,1.003,0.098,-0.122,0.488,-1.709,60.000,20246.000,1.000
-16.690,-21.240,-21.292,-7.073,-18.189,-24.780,-18.189,-16.843,-0.165,1.002,0.098,-0.092,0.549,-1.801,60.000,20247.000,1.000
-18.437,-21.792,-22.059,-8.703,-18.224,-24.620,-17.350,-16.194,-0.164,0.998,0.097,-0.183,0.580,-1.740,60.000,20248.000,1.000
-18.794,-20.788,-21.247,-8.885,-16.637,-22.534,-15.002,-13.911,-0.164,0.997,0.099,-0.244,0.519,-1.678,60.000,20249.000,1.000
-18.280,-18.678,-18.917,-7.366,-14.616,-19.127,-12.371,-10.534,-0.164,0.997,0.100,-0.214,0.549,-1.556,60.000,20250.000,1.000
-17.410,-16.451,-15.991,-5.090,-13.014,-15.671,-10.531,-7.498,-0.164,0.997,0.101,-0.275,0.549,-1.556,60.000,20251.000,1.000
-16.557,-15.341,-13.912,-3.667,-12.235,-13.823,-10.236,-6.397,-0.165,0.994,0.100,-0.275,0.549,-1.556,60.000,20252.000,1.000
-15.941,-16.018,-13.391,-3.785,-12.431,-14.482,-11.683,-7.566,-0.164,0.993,0.101,-0.305,0.519,-1.556,60.000,20253.000,1.000
-15.612,-18.069,-13.729,-4.476,-13.450,-16.949,-14.164,-9.638,-0.165,0.993,0.102,-0.336,0.580,-1.434,60.000,20254.000,1.000
-15.476,-20.462,-13.757,-4.396,-14.813,-19.652,-16.432,-10.936,-0.165,0.992,0.103,-0.336,0.488,-1.312,60.000,20255.000,1.000
-15.331,-22.396,-13.219,-3.510,-15.963,-21.582,-17.582,-11.138,-0.166,0.993,0.102,-0.183,0.427,-1.373,60.000,20256.000,1.000
-14.946,-23.512,-12.741,-2.921,-16.514,-22.616,-17.397,-11.076,-0.165,0.993,0.103,-0.214,0.488,-1.312,60.000,20257.000,1.000
-14.301,-23.594,-12.609,-3.185,-16.352,-22.790,-16.069,-11.162,-0.167,0.991,0.104,-0.305,0.458,-1.068,60.000,20258.000,1.000
-13.672,-22.450,-12.169,-3.533,-15.588,-21.828,-13.909,-10.743,-0.167,0.989,0.102,-0.153,0.397,-0.977,60.000,20259.000,1.000
-13.323,-20.129,-10.624,-2.936,-14.298,-19.486,-11.196,-9.068,-0.169,0.989,0.103,-0.153,0.336,-0.854,60.000,20260.000,1.000
-13.214,-17.219,-8.170,-1.463,-12.388,-16.110,-8.157,-6.411,-0.169,0.988,0.102,0.000,0.305,-0.946,60.000,20261.000,1.000
-13.185,-14.776,-6.038,-0.198,-9.971,-12.676,-5.196,-3.946,-0.168,0.988,0.103,0.092,0.214,-0.977,60.000,20262.000,1.000
-13.242,-13.629,-5.251,0.141,-7.718,-10.040,-2.991,-2.537,-0.169,0.989,0.100,0.122,0.214,-0.916,60.000,20263.000,1.000
-13.562,-13.764,-5.712,-0.011,-6.601,-8.351,-2.218,-2.041,-0.170,0.989,0.100,0.336,0.153,-1.038,60.000,20264.000,1.000
-14.458,-14.748,-6.917,-0.120,-7.434,-7.580,-3.384,-2.177,-0.170,0.990,0.100,0.336,0.244,-1.007,60.000,20265.000,1.000
-16.261,-16.476,-9.121,-0.858,-10.509,-8.221,-6.716,-3.547,-0.169,0.990,0.101,0.427,0.183,-1.007,60.000,20266.000,1.000
-18.985,-19.043,-12.973,-3.459,-15.309,-10.747,-11.718,-6.882,-0.170,0.990,0.099,0.519,0.092,-1.068,60.000,20267.000,1.000
-22.119,-22.064,-18.096,-7.855,-20.607,-14.574,-16.980,-11.450,-0.168,0.990,0.101,0.641,0.153,-1.038,60.000,20268.000,1.000
-24.826,-24.536,-22.653,-12.163,-24.996,-18.073,-20.783,-15.029,-0.170,0.992,0.102,0.519,0.000,-0.946,60.000,20269.000,1.000
-26.319,-25.498,-24.694,-14.314,-27.421,-19.717,-21.982,-15.719,-0.167,0.995,0.103,0.549,0.000,-0.946,60.000,20270.000,1.000
-26.266,-24.858,-23.836,-13.959,-27.529,-19.284,-20.573,-13.611,-0.167,0.996,0.100,0.488,-0.031,-1.038,60.000,20271.000,1.000
-24.989,-23.522,-21.416,-12.499,-25.877,-18.025,-17.715,-10.527,-0.168,0.996,0.100,0.549,-0.031,-1.038,60.000,20272.000,1.000
-23.201,-22.479,-18.947,-11.222,-23.577,-17.373,-14.928,-8.129,-0.166,0.995,0.103,0.397,-0.092,-0.977,60.000,20273.000,1.000
-21.436,-21.780,-16.750,-9.935,-21.464,-17.429,-12.953,-6.558,-0.168,0.996,0.100,0.336,-0.031,-0.885,60.000,20274.000,1.000
-19.903,-20.842,-14.470,-7.926,-19.845,-17.258,-11.579,-5.230,-0.166,0.999,0.100,0.214,0.031,-0.793,60.000,20275.000,1.000
-18.811,-19.624,-12.479,-5.717,-18.969,-16.515,-10.456,-4.381,-0.164,0.999,0.101,0.275,0.061,-0.732,60.000,20276.000,1.000
-18.369,-18.793,-11.808,-4.776,-19.066,-15.825,-9.532,-4.897,-0.164,0.999,0.101,0.183,0.092,-0.702,60.000,20277.000,1.000
-18.481,-18.759,-12.679,-5.559,-19.866,-15.580,-8.734,-6.725,-0.165,1.001,0.101,0.092,0.214,-0.458,60.000,20278.000,1.000
-18.809,-19.201,-13.992,-6.862,-20.670,-15.333,-7.881,-8.463,-0.165,1.000,0.101,0.000,0.214,-0.488,60.000,20279.000,1.000
-19.086,-19.615,-14.551,-7.363,-20.948,-14.611,-7.008,-8.870,-0.167,1.001,0.098,0.031,0.244,-0.458,60.000,20280.000,1.000
-19.019,-19.788,-14.175,-6.995,-20.522,-13.612,-6.301,-8.129,-0.166,1.002,0.101,-0.031,0.336,-0.519,60.000,20281.000,1.000
-18.050,-19.559,-13.299,-6.376,-19.328,-12.792,-5.633,-7.218,-0.167,1.000,0.101,-0.031,0.305,-0.397,60.000,20282.000,1.000
-15.692,-18.612,-11.988,-5.518,-17.541,-12.264,-4.634,-6.521,-0.166,1.000,0.103,-0.153,0.427,-0.305,60.000,20283.000,1.000
-12.174,-16.814,-9.842,-3.746,-15.827,-11.921,-3.256,-5.573,-0.167,0.998,0.103,-0.244,0.519,-0.305,60.000,20284.000,1.000
-8.435,-14.601,-6.801,-0.864,-14.968,-11.935,-1.939,-4.075,-0.165,0.996,0.104,-0.183,0.549,-0.305,60.000,20285.000,1.000
-5.381,-12.794,-3.684,2.082,-15.067,-12.804,-1.190,-2.666,-0.164,0.994,0.104,-0.092,0.580,-0.275,60.000,20286.000,1.000
-3.286,-11.942,-1.606,3.595,-15.346,-14.675,-1.092,-2.296,-0.165,0.996,0.102,0.000,0.519,-0.122,60.000,20287.000,1.000
-1.917,-11.817,-0.850,3.295,-14.838,-16.710,-1.229,-2.935,-0.166,0.994,0.102,-0.092,0.641,-0.092,60.000,20288.000,1.000
-0.968,-11.584,-0.549,2.364,-13.132,-17.420,-0.982,-3.312,-0.164,0.993,0.106,0.092,0.702,-0.061,60.000,20289.000,1.000
-0.254,-10.498,0.312,2.210,-10.437,-15.859,0.119,-2.167,-0.164,0.994,0.106,0.092,0.824,0.000,60.000,20290.000,1.000
0.443,-8.429,1.839,3.014,-7.091,-12.448,2.237,0.542,-0.164,0.996,0.105,0.000,0.793,-0.031,60.000,20291.000,1.000
1.483,-5.703,3.460,3.992,-3.252,-8.506,5.267,3.930,-0.162,0.995,0.107,-0.061,0.946,-0.092,60.000,20292.000,1.000
3.089,-2.651,4.939,4.747,0.848,-5.091,8.813,7.333,-0.163,0.994,0.107,-0.061,0.916,0.031,60.000,20293.000,1.000
4.968,0.451,6.645,5.780,4.540,-2.562,12.111,10.696,-0.164,0.995,0.102,0.061,0.977,0.031,60.000,20294.000,1.000
6.383,3.050,8.685,7.462,6.914,-1.094,14.200,13.808,-0.163,0.994,0.102,0.092,1.068,0.031,60.000,20295.000,1.000
6.690,4.331,10.258,9.046,7.495,-1.024,14.453,15.695,-0.163,0.993,0.103,0.244,1.160,0.061,60.000,20296.000,1.000
5.862,3.922,10.408,9.356,6.660,-2.320,13.109,15.381,-0.163,0.993,0.101,0.061,1.190,0.183,60.000,20297.000,1.000
4.530,2.503,9.303,8.358,5.264,-4.067,11.162,13.210,-0.162,0.994,0.101,0.031,1.221,0.275,60.000,20298.000,1.000
3.533,1.397,8.317,7.448,3.871,-4.947,9.636,10.893,-0.162,0.994,0.102,0.092,1.404,0.305,60.000,20299.000,1.000
3.461,1.528,8.715,7.964,2.456,-4.296,9.005,10.014,-0.161,0.993,0.104,0.153,1.465,0.244,60.000,20300.000,1.000
4.464,2.780,10.468,9.731,0.856,-2.598,9.215,10.689,-0.160,0.993,0.102,0.275,1.587,0.305,60.000,20301.000,1.000
6.206,4.291,12.468,11.351,-0.743,-0.891,10.006,11.847,-0.160,0.993,0.100,0.244,1.678,0.183,60.000,20302.000,1.000
8.022,5.343,13.874,11.864,-1.926,0.259,11.167,12.645,-0.159,0.993,0.103,0.275,1.709,0.336,60.000,20303.000,1.000
9.358,5.949,15.007,11.740,-2.692,1.119,12.525,13.243,-0.162,0.994,0.106,0.214,1.709,0.366,60.000,20304.000,1.000
10.102,6.482,16.629,11.952,-3.820,2.029,13.718,14.008,-0.163,0.993,0.105,0.244,1.709,0.397,60.000,20305.000,1.000
10.496,6.933,18.625,12.530,-6.313,2.552,14.153,14.424,-0.163,0.993,0.103,0.122,1.801,0.336,60.000,20306.000,1.000
10.923,6.969,20.057,12.721,-10.187,1.911,13.555,13.525,-0.163,0.993,0.103,0.183,1.892,0.305,60.000,20307.000,1.000
11.755,6.647,20.483,12.422,-13.915,0.194,12.443,11.384,-0.164,0.993,0.101,0.153,1.648,0.275,60.000,20308.000,1.000
13.103,6.513,20.491,12.571,-15.498,-1.516,11.683,9.376,-0.166,0.992,0.102,0.092,1.648,0.183,60.000,20309.000,1.000
14.527,6.717,20.579,13.698,-14.192,-2.469,11.536,8.535,-0.167,0.993,0.104,0.275,1.587,0.153,60.000,20310.000,1.000
15.145,6.465,20.044,14.744,-11.026,-3.171,11.494,8.241,-0.166,0.995,0.105,0.305,1.587,0.061,60.000,20311.000,1.000
14.289,4.808,17.681,14.010,-7.651,-4.540,11.056,7.170,-0.165,0.995,0.105,0.183,1.556,0.061,60.000,20312.000,1.000
12.126,1.844,13.537,11.236,-4.909,-6.434,10.398,5.236,-0.162,0.996,0.109,0.153,1.434,0.061,60.000,20313.000,1.000
9.620,-1.152,9.420,8.160,-2.448,-7.519,10.270,3.915,-0.164,0.998,0.108,0.153,1.343,-0.031,60.000,20314.000,1.000
7.825,-2.815,7.297,6.702,0.677,-6.728,11.378,4.465,-0.165,0.999,0.103,-0.061,1.312,0.000,60.000,20315.000,1.000
7.113,-2.837,7.358,6.904,5.125,-4.540,13.840,6.268,-0.164,1.000,0.104,0.000,1.221,0.000,60.000,20316.000,1.000
7.066,-1.954,8.018,7.174,10.722,-2.536,17.149,7.382,-0.164,1.000,0.105,-0.092,1.129,0.092,60.000,20317.000,1.000
7.029,-0.957,7.768,6.393,16.508,-1.763,20.590,6.631,-0.163,0.999,0.106,-0.122,1.007,0.122,60.000,20318.000,1.000
6.659,-0.001,6.556,5.105,21.326,-1.808,23.629,4.673,-0.162,0.998,0.107,-0.183,0.977,0.061,60.000,20319.000,1.000
6.013,1.030,5.212,4.444,24.510,-1.555,25.977,2.914,-0.163,0.997,0.106,-0.214,0.946,0.061,60.000,20320.000,1.000
5.311,1.864,4.049,4.452,26.168,-0.524,27.425,1.867,-0.161,0.998,0.107,-0.305,0.946,0.061,60.000,20321.000,1.000
4.704,1.977,2.521,4.063,26.890,0.833,27.709,1.018,-0.161,0.996,0.106,-0.336,0.854,0.000,60.000,20322.000,1.000
4.144,1.251,0.180,2.605,27.189,1.929,26.552,0.004,-0.162,0.996,0.106,-0.336,0.885,0.092,60.000,20323.000,1.000
3.471,0.202,-2.477,0.724,27.256,2.714,23.932,-0.752,-0.161,0.997,0.108,-0.427,0.885,0.122,60.000,20324.000,1.000
2.666,-0.521,-4.449,-0.444,27.163,3.396,20.267,-0.797,-0.161,0.998,0.109,-0.275,0.885,0.244,60.000,20325.000,1.000
1.898,-0.784,-5.405,-0.687,27.044,3.755,16.279,-0.578,-0.164,0.997,0.109,-0.458,0.793,0.305,60.000,20326.000,1.000
1.283,-0.987,-5.953,-0.752,27.016,3.279,12.721,-0.998,-0.162,0.996,0.105,-0.397,0.793,0.397,60.000,20327.000,1.000
0.771,-1.408,-6.640,-1.017,27.063,2.073,10.175,-2.076,-0.160,0.997,0.107,-0.336,0.702,0.366,60.000,20328.000,1.000
0.273,-1.804,-7.160,-0.832,27.065,1.074,8.841,-2.665,-0.161,0.997,0.105,-0.366,0.732,0.305,60.000,20329.000,1.000
-0.208,-1.826,-6.936,0.405,26.922,1.057,8.387,-1.831,-0.162,0.996,0.105,-0.275,0.641,0.275,60.000,20330.000,1.000
-0.566,-1.578,-6.162,1.994,26.686,1.737,8.098,-0.129,-0.161,0.997,0.108,-0.366,0.732,0.244,60.000,20331.000,1.000
-0.709,-1.504,-5.718,2.456,26.557,2.176,7.361,1.023,-0.161,0.997,0.110,-0.336,0.671,0.183,60.000,20332.000,1.000
-0.684,-1.755,-6.019,1.236,26.662,1.885,6.028,1.047,-0.161,0.998,0.108,-0.427,0.580,0.183,60.000,20333.000,1.000
-0.675,-1.976,-6.440,-0.691,26.794,1.187,4.275,0.663,-0.160,0.998,0.111,-0.397,0.549,0.031,60.000,20334.000,1.000
-0.921,-1.910,-6.220,-2.137,26.444,0.492,2.212,0.604,-0.160,0.998,0.111,-0.397,0.549,0.061,60.000,20335.000,1.000
-1.625,-1.976,-5.622,-3.201,25.173,-0.409,-0.209,0.431,-0.160,0.997,0.112,-0.244,0.580,0.061,60.000,20336.000,1.000
-2.711,-2.775,-5.611,-4.888,23.055,-1.914,-2.835,-0.862,-0.159,0.999,0.112,-0.366,0.458,0.031,60.000,20337.000,1.000
-3.639,-4.083,-6.379,-7.317,20.787,-3.598,-4.992,-3.238,-0.160,1.000,0.113,-0.336,0.519,-0.092,60.000,20338.000,1.000
-3.739,-4.835,-6.855,-9.131,19.182,-4.250,-5.879,-5.294,-0.161,0.999,0.112,-0.214,0.458,-0.183,60.000,20339.000,1.000
-2.811,-4.253,-6.009,-9.062,18.558,-3.188,-5.335,-5.781,-0.160,0.996,0.113,-0.244,0.458,-0.244,60.000,20340.000,1.000
-1.195,-2.637,-4.148,-7.507,18.710,-1.105,-3.973,-4.961,-0.159,0.995,0.112,-0.153,0.458,-0.305,60.000,20341.000,1.000
0.660,-0.927,-2.516,-6.007,19.279,0.665,-2.624,-4.063,-0.158,0.995,0.112,-0.092,0.519,-0.336,60.000,20342.000,1.000
2.362,0.223,-1.866,-5.480,19.908,1.497,-1.829,-3.746,-0.157,0.995,0.112,-0.153,0.671,-0.397,60.000,20343.000,1.000
3.518,0.828,-1.779,-5.423,20.248,1.865,-1.650,-3.526,-0.160,0.994,0.110,0.122,0.702,-0.397,60.000,20344.000,1.000
3.943,1.255,-1.342,-4.890,20.165,2.489,-1.760,-2.704,-0.158,0.994,0.111,0.000,0.702,-0.458,60.000,20345.000,1.000
3.860,1.688,-0.321,-3.878,19.862,3.430,-1.779,-1.507,-0.158,0.993,0.112,0.092,0.671,-0.458,60.000,20346.000,1.000
3.656,1.995,0.638,-3.324,19.642,4.274,-1.572,-0.861,-0.159,0.993,0.110,0.214,0.763,-0.519,60.000,20347.000,1.000
3.514,2.117,1.037,-3.708,19.598,4.999,-1.217,-1.115,-0.158,0.994,0.112,0.244,0.885,-0.458,60.000,20348.000,1.000
3.349,2.368,1.326,-4.257,19.567,6.186,-0.822,-1.540,-0.157,0.993,0.110,0.366,0.946,-0.488,60.000,20349.000,1.000
2.991,3.087,2.252,-3.947,19.332,8.230,-0.409,-1.335,-0.157,0.993,0.109,0.519,1.007,-0.458,60.000,20350.000,1.000
2.386,4.101,3.652,-2.940,18.798,10.615,0.008,-0.715,-0.158,0.993,0.108,0.519,1.099,-0.488,60.000,20351.000,1.000
1.708,4.874,4.497,-2.391,17.977,12.216,0.223,-0.556,-0.161,0.994,0.108,0.580,1.038,-0.549,60.000,20352.000,1.000
1.308,5.210,4.174,-2.883,16.870,12.338,-0.186,-1.126,-0.160,0.995,0.107,0.702,1.007,-0.610,60.000,20353.000,1.000
1.442,5.438,3.217,-3.691,15.434,11.273,-1.525,-1.714,-0.160,0.994,0.108,0.763,1.068,-0.549,60.000,20354.000,1.000
1.971,5.800,2.489,-3.894,13.666,9.839,-3.648,-1.689,-0.160,0.994,0.110,0.763,1.038,-0.671,60.000,20355.000,1.000
2.315,5.912,1.950,-3.774,11.649,8.459,-6.085,-1.573,-0.162,0.994,0.112,0.885,0.946,-0.702,60.000,20356.000,1.000
1.855,5.095,0.741,-4.509,9.516,6.954,-8.402,-2.523,-0.163,0.996,0.113,0.977,0.916,-0.671,60.000,20357.000,1.000
0.519,3.304,-1.380,-6.386,7.510,5.323,-10.189,-4.652,-0.164,0.996,0.111,0.977,0.946,-0.671,60.000,20358.000,1.000
-1.017,1.526,-3.223,-8.004,6.048,4.298,-10.909,-6.463,-0.163,0.996,0.110,1.038,0.824,-0.702,60.000,20359.000,1.000
-1.750,1.097,-3.208,-7.665,5.654,4.819,-9.980,-6.267,-0.164,0.996,0.112,1.068,0.793,-0.793,60.000,20360.000,1.000
-1.022,2.676,-1.009,-5.198,6.806,7.212,-6.984,-3.832,-0.165,0.993,0.112,1.129,0.763,-0.732,60.000,20361.000,1.000
0.962,5.784,2.082,-2.073,9.487,10.890,-2.154,-0.436,-0.164,0.992,0.110,1.282,0.580,-0.824,60.000,20362.000,1.000
2.958,8.983,4.145,-0.042,12.529,14.515,3.050,2.284,-0.163,0.991,0.108,1.343,0.610,-0.732,60.000,20363.000,1.000
3.171,10.526,3.776,-0.018,13.752,16.548,6.384,3.290,-0.164,0.991,0.108,1.465,0.488,-0.763,60.000,20364.000,1.000
0.421,9.300,0.543,-2.082,11.447,16.071,6.412,2.296,-0.165,0.990,0.108,1.709,0.549,-0.824,60.000,20365.000,1.000
-4.900,5.474,-5.155,-6.014,5.830,13.262,3.622,-0.492,-0.163,0.990,0.107,1.892,0.458,-0.732,60.000,20366.000,1.000
-10.988,0.418,-12.237,-11.265,-1.112,9.256,-0.083,-4.394,-0.162,0.992,0.107,1.984,0.427,-0.732,60.000,20367.000,1.000
-15.720,-3.913,-18.908,-16.413,-7.018,5.757,-2.755,-7.990,-0.161,0.993,0.106,2.045,0.397,-0.702,60.000,20368.000,1.000
-17.784,-5.829,-23.130,-19.370,-10.414,4.364,-3.395,-9.457,-0.164,0.991,0.107,1.984,0.458,-0.732,60.000,20369.000,1.000
-17.133,-4.782,-23.840,-18.903,-11.112,5.558,-2.166,-7.959,-0.163,0.992,0.106,2.197,0.336,-0.641,60.000,20370.000,1.000
-14.635,-1.646,-21.799,-15.876,-9.817,8.245,-0.021,-4.670,-0.164,0.994,0.107,2.167,0.397,-0.519,60.000,20371.000,1.000
-11.389,1.976,-18.894,-12.487,-7.513,10.644,1.963,-1.847,-0.164,0.993,0.104,2.350,0.397,-0.580,60.000,20372.000,1.000
-8.308,4.853,-16.538,-10.231,-5.124,11.779,3.082,-0.734,-0.165,0.994,0.104,2.258,0.397,-0.549,60.000,20373.000,1.000
-6.052,6.626,-14.904,-8.961,-3.442,12.002,3.036,-0.788,-0.165,0.995,0.107,2.258,0.397,-0.397,60.000,20374.000,1.000
-4.974,7.368,-13.637,-7.977,-3.020,12.037,1.644,-1.010,-0.164,0.996,0.105,2.319,0.427,-0.397,60.000,20375.000,1.000
-4.949,7.022,-12.853,-7.389,-3.954,11.904,-1.174,-1.420,-0.163,0.997,0.105,2.350,0.458,-0.397,60.000,20376.000,1.000
-5.308,5.596,-12.929,-7.780,-5.688,11.221,-4.941,-2.631,-0.163,0.997,0.104,2.228,0.366,-0.397,60.000,20377.000,1.000
-5.213,3.714,-13.503,-8.842,-7.259,10.214,-8.471,-4.396,-0.162,0.997,0.105,2.350,0.397,-0.336,60.000,20378.000,1.000
-4.373,2.381,-13.468,-9.317,-8.107,9.609,-10.716,-5.549,-0.161,0.996,0.104,2.289,0.366,-0.244,60.000,20379.000,1.000
-3.302,2.094,-12.197,-8.540,-8.504,9.588,-11.655,-5.473,-0.162,0.997,0.104,2.289,0.366,-0.305,60.000,20380.000,1.000
-2.823,2.398,-10.432,-7.498,-9.050,9.425,-12.050,-4.972,-0.160,0.997,0.103,2.197,0.275,-0.244,60.000,20381.000,1.000
-3.590,2.245,-9.782,-8.023,-10.131,8.142,-12.656,-5.494,-0.158,0.996,0.105,1.953,0.458,-0.214,60.000,20382.000,1.000
-5.843,0.888,-11.177,-10.893,-11.873,5.447,-13.741,-7.600,-0.162,0.997,0.102,1.923,0.458,-0.183,60.000,20383.000,1.000
-9.105,-1.341,-13.765,-14.832,-14.066,2.239,-14.978,-10.253,-0.161,0.997,0.100,2.045,0.519,-0.153,60.000,20384.000,1.000
-12.282,-3.353,-15.707,-17.720,-16.127,-0.121,-15.813,-11.899,-0.160,0.995,0.102,1.892,0.610,-0.244,60.000,20385.000,1.000
-14.477,-4.554,-16.139,-18.794,-17.518,-1.224,-16.116,-12.240,-0.161,0.997,0.102,1.862,0.610,-0.214,60.000,20386.000,1.000
-15.587,-5.346,-15.799,-19.075,-18.186,-1.840,-16.306,-12.374,-0.162,0.997,0.102,1.831,0.549,-0.336,60.000,20387.000,1.000
-15.976,-6.273,-15.614,-19.578,-18.464,-2.689,-16.796,-13.071,-0.161,0.995,0.103,1.770,0.732,-0.397,60.000,20388.000,1.000
-15.874,-7.198,-15.383,-19.905,-18.694,-3.624,-17.616,-13.703,-0.162,0.995,0.103,1.770,0.732,-0.366,60.000,20389.000,1.000
-15.250,-7.595,-14.307,-19.077,-18.978,-4.151,-18.564,-13.245,-0.160,0.996,0.099,1.740,0.732,-0.427,60.000,20390.000,1.000
-13.945,-7.200,-12.248,-17.086,-19.044,-4.116,-19.390,-11.730,-0.160,0.996,0.099,1.709,0.763,-0.397,60.000,20391.000,1.000
-11.699,-5.984,-9.750,-14.802,-18.279,-3.496,-19.740,-10.034,-0.160,0.998,0.105,1.617,0.793,-0.549,60.000,20392.000,1.000
-8.292,-3.764,-6.992,-12.503,-16.133,-1.939,-19.249,-8.481,-0.162,0.995,0.104,1.495,0.916,-0.519,60.000,20393.000,1.000
-3.848,-0.293,-3.413,-9.367,-12.665,0.931,-17.871,-6.387,-0.160,0.996,0.101,1.465,0.977,-0.580,60.000,20394.000,1.000
0.985,4.118,1.273,-4.805,-8.673,4.684,-16.043,-3.223,-0.160,0.996,0.101,1.495,0.916,-0.641,60.000,20395.000,1.000
5.233,8.287,6.097,0.177,-5.273,7.850,-14.466,0.226,-0.159,0.996,0.100,1.343,1.007,-0.671,60.000,20396.000,1.000
8.146,10.822,9.437,3.648,-3.259,8.886,-13.633,2.434,-0.159,0.995,0.103,1.312,0.977,-0.793,60.000,20397.000,1.000
9.670,11.213,10.620,4.802,-2.761,7.526,-13.506,2.842,-0.160,0.992,0.103,1.373,1.160,-0.702,60.000,20398.000,1.000
10.366,10.200,10.551,4.771,-3.324,5.079,-13.619,2.504,-0.159,0.995,0.103,1.404,1.160,-0.671,60.000,20399.000,1.000
10.981,9.046,10.652,5.194,-4.220,3.246,-13.504,2.818,-0.158,0.996,0.097,1.434,1.160,-0.671,60.000,20400.000,1.000
12.038,8.561,11.451,6.418,-4.714,2.744,-13.005,3.993,-0.161,0.996,0.097,1.373,1.190,-0.641,60.000,20401.000,1.000
13.691,8.885,12.504,7.603,-4.232,3.288,-12.147,5.247,-0.160,0.997,0.100,1.404,1.221,-0.641,60.000,20402.000,1.000
15.761,9.936,13.446,8.277,-2.592,4.530,-10.903,6.200,-0.160,0.996,0.103,1.434,1.373,-0.824,60.000,20403.000,1.000
17.799,11.572,14.524,9.017,-0.295,6.327,-9.391,7.310,-0.162,0.996,0.106,1.373,1.343,-0.824,60.000,20404.000,1.000
19.262,13.325,15.978,10.456,1.675,8.144,-8.135,8.866,-0.163,0.996,0.104,1.251,1.343,-0.793,60.000,20405.000,1.000
19.808,14.385,17.324,12.155,2.566,8.891,-7.791,10.183,-0.163,0.996,0.104,1.251,1.373,-0.732,60.000,20406.000,1.000
19.493,14.182,17.683,12.942,2.340,7.814,-8.545,10.251,-0.164,0.996,0.104,1.221,1.434,-0.793,60.000,20407.000,1.000
18.722,13.022,16.888,12.400,1.513,5.448,-9.873,9.042,-0.165,0.996,0.105,1.251,1.495,-0.763,60.000,20408.000,1.000
18.009,11.951,15.829,11.457,0.631,3.331,-10.972,7.688,-0.164,0.995,0.100,1.190,1.556,-0.671,60.000,20409.000,1.000
17.642,11.782,15.405,11.158,-0.095,2.635,-11.342,7.129,-0.165,0.995,0.100,1.221,1.465,-0.580,60.000,20410.000,1.000
17.565,12.391,15.423,11.296,-0.682,3.269,-10.890,7.005,-0.163,0.995,0.102,1.221,1.404,-0.610,60.000,20411.000,1.000
17.464,13.030,14.869,10.755,-1.111,4.342,-9.706,6.293,-0.163,0.995,0.102,1.251,1.495,-0.641,60.000,20412.000,1.000
16.893,13.150,13.153,9.068,-1.351,5.263,-7.944,4.820,-0.164,0.996,0.103,1.129,1.434,-0.610,60.000,20413.000,1.000
15.558,12.875,10.878,7.188,-1.397,6.281,-5.775,3.783,-0.164,0.996,0.103,1.221,1.312,-0.641,60.000,20414.000,1.000
13.651,12.758,9.264,6.465,-1.098,7.961,-3.423,4.489,-0.165,0.996,0.100,1.129,1.343,-0.732,60.000,20415.000,1.000
11.675,13.061,8.816,6.993,-0.230,10.216,-1.302,6.712,-0.166,0.993,0.102,1.099,1.373,-0.580,60.000,20416.000,1.000
9.970,13.483,8.954,7.517,1.164,12.240,0.078,8.794,-0.166,0.995,0.103,1.099,1.373,-0.641,60.000,20417.000,1.000
8.731,13.841,9.227,7.242,2.811,13.614,0.645,9.602,-0.168,0.994,0.100,1.068,1.312,-0.488,60.000,20418.000,1.000
8.292,14.654,10.254,7.146,4.592,15.002,1.089,9.878,-0.168,0.994,0.100,1.038,1.282,-0.488,60.000,20419.000,1.000
8.901,16.464,12.801,8.791,6.557,17.104,2.170,11.091,-0.168,0.997,0.099,1.068,1.190,-0.458,60.000,20420.000,1.000
10.212,18.655,16.187,12.105,8.464,19.154,3.694,13.312,-0.166,0.996,0.099,1.099,1.160,-0.427,60.000,20421.000,1.000
11.285,19.618,18.430,15.153,9.647,19.333,4.573,15.037,-0.165,0.996,0.101,1.129,1.099,-0.427,60.000,20422.000,1.000
11.267,18.311,18.204,16.258,9.502,16.780,3.949,15.172,-0.164,0.996,0.101,1.129,1.068,-0.366,60.000,20423.000,1.000
9.945,15.182,16.046,15.552,7.904,12.507,1.892,14.251,-0.163,0.997,0.103,0.977,0.946,-0.366,60.000,20424.000,1.000
7.650,11.427,13.316,14.027,5.108,8.148,-0.951,13.239,-0.162,0.995,0.099,0.946,0.977,-0.336,60.000,20425.000,1.000
4.901,7.851,10.579,11.862,1.572,4.410,-3.873,11.934,-0.163,0.995,0.094,0.977,0.946,-0.244,60.000,20426.000,1.000
2.188,4.653,7.503,8.451,-2.126,1.055,-6.280,9.309,-0.160,0.997,0.100,1.068,0.977,-0.092,60.000,20427.000,1.000
-0.187,1.928,3.981,3.819,-5.485,-2.112,-7.812,5.139,-0.162,0.996,0.101,1.007,1.007,-0.214,60.000,20428.000,1.000
-2.134,0.041,0.853,-0.662,-8.174,-4.644,-8.412,0.717,-0.162,0.995,0.100,0.946,1.099,-0.122,60.000,20429.000,1.000
-3.587,-0.621,-0.738,-3.296,-9.872,-5.842,-8.131,-2.191,-0.159,0.995,0.100,1.160,1.129,-0.122,60.000,20430.000,1.000
-4.530,-0.339,-0.694,-3.781,-10.385,-5.746,-7.116,-3.053,-0.159,0.997,0.098,1.007,1.190,-0.061,60.000,20431.000,1.000
-5.327,-0.293,-0.373,-3.570,-10.133,-5.539,-5.935,-3.026,-0.159,0.996,0.098,0.977,1.221,0.000,60.000,20432.000,1.000
-6.598,-1.607,-1.236,-4.218,-10.117,-6.466,-5.370,-3.496,-0.161,0.996,0.100,1.007,1.129,-0.031,60.000,20433.000,1.000
-8.508,-4.114,-3.245,-5.661,-11.035,-8.420,-5.591,-4.413,-0.161,0.997,0.100,0.916,1.282,-0.031,60.000,20434.000,1.000
-10.489,-6.505,-5.178,-6.697,-12.648,-10.153,-5.872,-4.664,-0.163,0.996,0.099,0.977,1.282,-0.092,60.000,20435.000,1.000
-11.830,-7.797,-6.403,-6.880,-14.219,-10.843,-5.374,-3.872,-0.162,0.997,0.101,0.916,1.282,-0.092,60.000,20436.000,1.000
-12.286,-8.203,-7.556,-7.050,-15.335,-10.838,-4.021,-3.021,-0.161,0.997,0.102,0.885,1.190,-0.092,60.000,20437.000,1.000
-11.995,-8.455,-9.284,-7.853,-16.146,-10.870,-2.556,-3.104,-0.160,0.997,0.104,0.854,1.160,-0.122,60.000,20438.000,1.000
-11.092,-8.764,-11.066,-8.577,-16.947,-11.123,-1.941,-3.878,-0.161,0.997,0.103,0.732,1.099,-0.214,60.000,20439.000,1.000
-9.554,-8.713,-11.732,-7.973,-17.627,-11.221,-2.653,-4.363,-0.161,0.995,0.102,0.763,1.099,-0.275,60.000,20440.000,1.000
-7.326,-7.879,-10.777,-5.810,-17.523,-10.780,-4.375,-4.175,-0.160,0.996,0.103,0.732,1.251,-0.397,60.000,20441.000,1.000
-4.539,-6.253,-8.693,-3.029,-15.910,-9.721,-6.244,-3.807,-0.161,0.996,0.099,0.732,1.129,-0.397,60.000,20442.000,1.000
-1.547,-4.035,-6.040,-0.390,-12.636,-8.069,-7.342,-3.582,-0.162,0.996,0.103,0.671,1.038,-0.458,60.000,20443.000,1.000
1.269,-1.315,-2.695,2.408,-8.249,-5.692,-7.005,-2.864,-0.162,0.998,0.100,0.610,1.068,-0.519,60.000,20444.000,1.000
3.595,1.762,1.526,5.804,-3.694,-2.635,-5.036,-0.892,-0.160,0.997,0.101,0.488,1.068,-0.580,60.000,20445.000,1.000
5.165,4.633,5.771,8.991,0.060,0.314,-1.878,1.873,-0.161,0.997,0.102,0.305,0.885,-0.641,60.000,20446.000,1.000
5.898,6.529,8.502,10.344,2.377,1.982,1.602,3.971,-0.161,0.998,0.102,0.458,0.824,-0.580,60.000,20447.000,1.000
6.092,7.190,9.101,9.343,3.157,1.974,4.642,4.608,-0.159,0.998,0.103,0.275,0.854,-0.641,60.000,20448.000,1.000
6.234,7.106,8.561,7.363,2.695,1.086,6.842,4.470,-0.160,0.999,0.105,0.275,0.854,-0.671,60.000,20449.000,1.000
6.533,6.873,8.247,6.122,1.381,0.301,7.970,4.617,-0.163,1.000,0.102,0.244,0.854,-0.671,60.000,20450.000,1.000
6.756,6.533,8.392,5.849,-0.352,-0.217,7.893,5.105,-0.162,0.999,0.102,0.275,0.824,-0.732,60.000,20451.000,1.000
6.611,5.878,8.277,5.574,-1.851,-0.742,6.967,5.311,-0.161,0.998,0.101,0.061,0.732,-0.671,60.000,20452.000,1.000
6.252,5.291,7.735,5.007,-2.241,-0.843,6.302,5.448,-0.160,0.998,0.102,0.122,0.763,-0.641,60.000,20453.000,1.000
6.140,5.627,7.647,5.184,-0.952,0.566,7.164,6.801,-0.160,0.997,0.104,0.061,0.824,-0.702,60.000,20454.000,1.000
6.202,6.832,8.461,6.736,1.468,3.544,9.623,9.861,-0.161,0.998,0.106,0.061,0.824,-0.641,60.000,20455.000,1.000
5.402,7.155,8.833,8.187,3.252,5.992,11.870,12.789,-0.163,0.998,0.104,0.000,0.824,-0.549,60.000,20456.000,1.000
2.506,4.388,6.582,6.940,2.491,4.968,11.342,12.611,-0.160,0.997,0.105,0.061,0.793,-0.580,60.000,20457.000,1.000
-2.646,-1.961,1.140,2.103,-1.489,-0.615,6.848,8.115,-0.161,0.995,0.104,0.183,0.763,-0.488,60.000,20458.000,1.000
-8.499,-9.731,-5.242,-4.109,-7.464,-8.673,-0.246,1.259,-0.160,0.995,0.105,0.153,0.824,-0.488,60.000,20459.000,1.000
-12.433,-15.369,-9.035,-8.122,-12.830,-15.361,-6.838,-4.441,-0.160,0.993,0.103,-0.031,0.793,-0.427,60.000,20460.000,1.000
-12.445,-16.444,-8.294,-8.064,-15.127,-17.905,-10.218,-6.788,-0.162,0.994,0.103,-0.031,0.793,-0.458,60.000,20461.000,1.000
-8.478,-13.099,-3.907,-4.820,-13.522,-16.159,-9.643,-6.014,-0.164,0.995,0.102,0.092,0.763,-0.397,60.000,20462.000,1.000
-2.322,-7.349,1.756,-0.424,-9.146,-11.804,-6.262,-3.513,-0.164,0.994,0.105,0.122,0.732,-0.366,60.000,20463.000,1.000
3.555,-1.493,6.743,3.728,-4.239,-6.851,-2.073,-0.400,-0.165,0.995,0.106,0.183,0.702,-0.336,60.000,20464.000,1.000
7.307,2.804,10.066,6.971,-0.777,-2.968,1.113,2.521,-0.166,0.995,0.103,0.275,0.641,-0.366,60.000,20465.000,1.000
8.470,4.773,11.247,8.676,0.587,-1.204,2.483,4.338,-0.162,0.994,0.106,0.122,0.458,-0.336,60.000,20466.000,1.000
7.815,4.580,10.162,8.298,0.504,-1.619,2.476,4.394,-0.164,0.994,0.104,0.183,0.458,-0.366,60.000,20467.000,1.000
6.531,3.152,7.432,6.197,-0.010,-3.202,2.233,3.085,-0.163,0.993,0.107,0.183,0.305,-0.305,60.000,20468.000,1.000
5.576,1.698,4.548,3.891,-0.337,-4.476,2.745,1.864,-0.163,0.993,0.104,0.122,0.366,-0.366,60.000,20469.000,1.000
5.560,1.106,3.058,3.013,-0.233,-4.461,4.391,2.054,-0.163,0.993,0.104,0.183,0.305,-0.397,60.000,20470.000,1.000
6.780,1.520,3.414,3.943,0.488,-3.254,6.940,3.601,-0.164,0.994,0.105,0.092,0.305,-0.397,60.000,20471.000,1.000
9.038,2.420,4.792,5.709,1.879,-1.721,9.751,5.289,-0.162,0.992,0.105,0.305,0.275,-0.366,60.000,20472.000,1.000
11.586,3.213,6.150,7.269,3.614,-0.522,12.117,6.200,-0.160,0.994,0.105,0.458,0.366,-0.336,60.000,20473.000,1.000
13.510,3.704,7.181,8.495,5.055,0.375,13.564,6.560,-0.160,0.995,0.103,0.458,0.275,-0.427,60.000,20474.000,1.000
14.198,3.871,7.997,9.564,5.605,1.094,13.886,6.909,-0.160,0.995,0.104,0.427,0.427,-0.336,60.000,20475.000,1.000
13.581,3.451,8.275,9.965,5.108,1.260,13.170,7.010,-0.161,0.997,0.104,0.427,0.458,-0.366,60.000,20476.000,1.000
12.126,2.199,7.384,8.858,3.979,0.526,11.976,6.232,-0.160,0.998,0.101,0.397,0.458,-0.244,60.000,20477.000,1.000
10.535,0.448,5.357,6.358,2.832,-0.602,11.180,4.772,-0.159,0.997,0.101,0.305,0.580,-0.214,60.000,20478.000,1.000
9.262,-0.997,3.207,3.819,1.960,-1.075,11.332,3.781,-0.157,0.999,0.100,0.275,0.671,-0.275,60.000,20479.000,1.000
8.293,-1.624,1.968,2.520,1.269,-0.461,12.208,4.082,-0.157,0.998,0.100,0.366,0.885,-0.183,60.000,20480.000,1.000
7.372,-1.679,1.622,2.293,0.645,0.463,13.059,5.098,-0.159,0.997,0.102,0.305,0.854,-0.244,60.000,20481.000,1.000
6.386,-1.760,1.311,1.868,0.189,0.522,13.282,5.440,-0.159,0.997,0.101,0.366,0.885,-0.336,60.000,20482.000,1.000
5.557,-1.989,0.654,0.637,0.175,-0.382,13.042,4.557,-0.161,0.995,0.102,0.427,1.007,-0.366,60.000,20483.000,1.000
5.306,-1.750,0.394,-0.405,0.902,-0.860,13.312,3.512,-0.159,0.995,0.104,0.458,1.129,-0.458,60.000,20484.000,1.000
5.830,-0.485,1.331,0.040,2.423,0.500,14.967,3.753,-0.159,0.995,0.104,0.427,1.190,-0.397,60.000,20485.000,1.000
6.702,1.287,2.836,1.632,4.233,3.271,17.525,5.233,-0.159,0.995,0.103,0.366,1.312,-0.366,60.000,20486.000,1.000
6.996,2.159,3.106,2.487,5.397,5.335,19.136,6.324,-0.159,0.995,0.103,0.397,1.404,-0.366,60.000,20487.000,1.000
6.000,1.223,1.124,1.386,5.188,5.047,18.215,5.736,-0.157,0.994,0.099,0.427,1.465,-0.397,60.000,20488.000,1.000
3.929,-0.912,-1.993,-0.690,3.721,2.835,14.941,3.944,-0.160,0.994,0.100,0.549,1.526,-0.366,60.000,20489.000,1.000
1.997,-2.531,-3.809,-1.526,2.137,0.677,11.199,2.525,-0.160,0.993,0.101,0.793,1.740,-0.427,60.000,20490.000,1.000
1.693,-2.147,-2.679,0.095,2.056,0.428,9.282,2.477,-0.162,0.994,0.102,0.885,1.740,-0.458,60.000,20491.000,1.000
3.635,0.451,1.013,3.410,4.385,2.556,10.343,3.536,-0.163,0.996,0.101,0.824,1.892,-0.519,60.000,20492.000,1.000
6.943,4.196,5.485,6.743,8.398,6.122,13.673,4.926,-0.161,0.995,0.101,0.916,1.892,-0.519,60.000,20493.000,1.000
9.814,7.594,9.076,9.053,12.164,9.688,17.342,6.312,-0.161,0.996,0.102,0.854,1.984,-0.580,60.000,20494.000,1.000
10.882,9.608,11.028,10.225,14.028,12.122,19.590,7.772,-0.161,0.998,0.102,0.916,1.953,-0.641,60.000,20495.000,1.000
9.959,9.825,11.097,10.206,13.588,12.639,19.576,8.967,-0.164,1.000,0.104,0.916,2.106,-0.641,60.000,20496.000,1.000
7.694,8.226,9.164,8.651,11.430,10.772,17.263,8.968,-0.165,1.001,0.105,0.916,2.045,-0.732,60.000,20497.000,1.000
4.994,5.385,5.849,5.883,8.546,7.059,13.354,7.449,-0.163,1.000,0.106,0.916,2.045,-0.732,60.000,20498.000,1.000
2.776,2.699,2.977,3.581,6.068,3.369,9.276,5.589,-0.163,1.001,0.104,0.854,2.045,-0.732,60.000,20499.000,1.000
1.779,1.669,2.451,3.543,4.987,1.694,6.551,5.039,-0.161,1.002,0.103,0.854,1.984,-0.763,60.000,20500.000,1.000
2.237,2.696,4.491,5.786,5.664,2.453,5.853,6.113,-0.164,1.003,0.102,0.854,2.136,-0.732,60.000,20501.000,1.000
3.751,4.859,7.473,8.523,7.602,4.334,6.723,7.583,-0.163,1.001,0.106,0.671,2.106,-0.732,60.000,20502.000,1.000
5.632,7.012,9.728,10.233,9.865,5.893,8.221,8.342,-0.164,1.002,0.107,0.641,2.075,-0.580,60.000,20503.000,1.000
7.414,8.840,11.076,11.173,11.772,6.968,9.730,8.638,-0.164,1.003,0.107,0.580,2.045,-0.488,60.000,20504.000,1.000
8.910,10.554,12.213,12.408,13.101,8.196,10.960,9.286,-0.166,1.003,0.109,0.458,2.045,-0.458,60.000,20505.000,1.000
9.887,11.864,13.098,13.889,13.805,9.581,11.567,10.132,-0.166,1.001,0.106,0.488,1.984,-0.427,60.000,20506.000,1.000
10.046,11.953,12.800,14.391,13.866,10.232,11.304,10.120,-0.163,1.000,0.105,0.305,2.014,-0.366,60.000,20507.000,1.000
9.422,10.533,10.944,13.289,13.392,9.565,10.497,8.804,-0.164,0.998,0.106,0.214,1.953,-0.214,60.000,20508.000,1.000
8.591,8.462,8.595,11.593,12.653,8.211,10.039,7.114,-0.164,0.998,0.108,0.305,1.892,-0.153,60.000,20509.000,1.000
8.339,7.034,7.320,10.813,11.961,7.380,10.763,6.261,-0.164,0.995,0.106,0.214,1.831,-0.031,60.000,20510.000,1.000
9.073,6.791,7.602,11.159,11.524,7.535,12.725,6.246,-0.165,0.993,0.106,0.275,1.801,0.031,60.000,20511.000,1.000
10.544,7.266,8.585,11.477,11.377,8.152,15.052,5.991,-0.164,0.992,0.108,0.305,1.678,0.092,60.000,20512.000,1.000
12.071,7.783,9.327,10.919,11.381,8.712,16.586,4.906,-0.165,0.992,0.107,0.214,1.709,0.092,60.000,20513.000,1.000
12.917,8.104,9.730,9.919,11.262,9.339,16.721,3.635,-0.165,0.990,0.108,0.305,1.587,0.031,60.000,20514.000,1.000
12.640,8.281,10.104,9.255,10.780,10.319,15.735,3.063,-0.163,0.990,0.107,0.397,1.526,0.183,60.000,20515.000,1.000
11.334,8.207,10.243,8.687,9.908,11.428,14.465,3.057,-0.166,0.990,0.106,0.366,1.373,0.183,60.000,20516.000,1.000
9.520,7.519,9.409,7.150,8.728,11.976,13.708,2.609,-0.165,0.990,0.105,0.519,1.312,0.244,60.000,20517.000,1.000
7.761,6.044,7.348,4.303,7.230,11.479,13.815,1.202,-0.165,0.989,0.105,0.519,1.129,0.183,60.000,20518.000,1.000
6.409,4.247,4.971,1.393,5.469,10.197,14.724,-0.341,-0.164,0.990,0.108,0.488,1.038,0.183,60.000,20519.000,1.000
5.560,2.935,3.608,0.076,3.787,8.814,16.148,-0.756,-0.164,0.991,0.112,0.488,0.946,0.183,60.000,20520.000,1.000
5.013,2.338,3.518,0.478,2.585,7.511,17.560,0.010,-0.164,0.991,0.110,0.702,0.946,0.122,60.000,20521.000,1.000
4.309,1.785,3.578,1.016,1.841,5.671,18.161,0.617,-0.163,0.991,0.107,0.702,0.671,0.092,60.000,20522.000,1.000
2.994,0.469,2.578,0.262,1.025,2.727,17.202,-0.097,-0.164,0.991,0.108,0.641,0.732,0.122,60.000,20523.000,1.000
0.935,-1.706,0.464,-1.619,-0.496,-0.973,14.518,-1.934,-0.161,0.991,0.106,0.641,0.671,0.031,60.000,20524.000,1.000
-1.498,-4.154,-1.874,-3.510,-2.899,-4.432,10.760,-3.934,-0.159,0.991,0.108,0.702,0.549,-0.061,60.000,20525.000,1.000
-3.519,-6.187,-3.679,-4.868,-5.626,-6.883,7.074,-5.609,-0.157,0.993,0.105,0.824,0.488,-0.122,60.000,20526.000,1.000
-4.335,-7.400,-4.793,-6.019,-7.680,-8.101,4.450,-7.147,-0.158,0.995,0.104,0.763,0.549,-0.153,60.000,20527.000,1.000
-3.724,-7.669,-5.235,-7.170,-8.424,-8.123,3.136,-8.670,-0.158,0.993,0.104,0.854,0.458,-0.244,60.000,20528.000,1.000
-2.343,-7.144,-4.923,-7.888,-8.176,-7.181,2.514,-9.879,-0.157,0.996,0.108,0.977,0.488,-0.214,60.000,20529.000,1.000
-1.420,-6.393,-4.116,-7.928,-7.997,-6.025,1.509,-10.708,-0.156,0.997,0.108,0.946,0.519,-0.366,60.000,20530.000,1.000
-1.990,-6.371,-3.800,-8.109,-8.824,-5.912,-0.723,-11.917,-0.155,0.996,0.105,0.916,0.610,-0.397,60.000,20531.000,1.000
-4.218,-7.768,-5.028,-9.654,-10.721,-7.733,-4.203,-14.382,-0.154,0.999,0.108,0.977,0.641,-0.519,60.000,20532.000,1.000
-7.326,-10.225,-7.678,-12.537,-12.844,-10.966,-7.988,-17.683,-0.154,0.999,0.107,1.007,0.793,-0.458,60.000,20533.000,1.000
-10.184,-12.467,-10.238,-15.097,-14.110,-13.845,-10.703,-19.960,-0.153,0.999,0.106,1.007,0.732,-0.580,60.000,20534.000,1.000
-12.135,-13.526,-11.293,-15.788,-14.021,-14.961,-11.533,-19.700,-0.154,0.999,0.107,0.946,0.885,-0.641,60.000,20535.000,1.000
-13.410,-13.776,-11.138,-15.102,-13.025,-14.680,-10.882,-17.528,-0.155,0.998,0.109,1.007,1.007,-0.793,60.000,20536.000,1.000
-14.642,-14.419,-11.335,-15.042,-12.024,-14.573,-9.895,-15.597,-0.157,0.999,0.107,1.007,1.068,-0.916,60.000,20537.000,1.000
-15.996,-15.982,-12.641,-16.631,-11.536,-15.499,-9.350,-15.196,-0.156,0.998,0.107,1.068,1.068,-0.885,60.000,20538.000,1.000
-17.074,-17.859,-14.179,-18.761,-11.540,-16.875,-9.339,-15.697,-0.156,0.998,0.108,1.007,1.190,-1.068,60.000,20539.000,1.000
-17.587,-19.271,-14.812,-19.790,-11.930,-17.757,-9.778,-15.945,-0.157,0.996,0.108,0.977,1.160,-1.068,60.000,20540.000,1.000
-17.692,-20.055,-14.583,-19.510,-12.615,-17.928,-10.636,-15.825,-0.159,0.996,0.107,1.038,1.190,-1.129,60.000,20541.000,1.000
-17.691,-20.464,-14.441,-19.080,-13.352,-17.780,-11.777,-16.085,-0.160,0.996,0.104,1.129,1.160,-1.160,60.000,20542.000,1.000
-17.612,-20.597,-14.845,-19.274,-13.862,-17.555,-12.951,-17.018,-0.161,0.996,0.106,1.129,1.129,-1.190,60.000,20543.000,1.000
-17.031,-20.084,-14.939,-19.275,-13.931,-16.862,-13.833,-17.769,-0.162,0.995,0.106,1.221,1.129,-1.343,60.000,20544.000,1.000
-15.366,-18.391,-13.381,-17.616,-13.300,-15.086,-14.015,-17.211,-0.162,0.996,0.106,1.190,1.190,-1.282,60.000,20545.000,1.000
-12.563,-15.569,-10.050,-14.189,-11.756,-12.312,-13.264,-15.379,-0.165,0.997,0.105,1.129,1.129,-1.373,60.000,20546.000,1.000
-9.417,-12.515,-6.432,-10.628,-9.427,-9.485,-11.805,-13.521,-0.166,0.998,0.106,1.190,1.099,-1.434,60.000,20547.000,1.000
-7.054,-10.265,-4.110,-8.500,-6.855,-7.471,-10.161,-12.559,-0.166,0.998,0.108,1.068,1.007,-1.526,60.000,20548.000,1.000
-6.160,-9.196,-3.364,-7.796,-4.775,-6.344,-8.846,-12.118,-0.164,0.998,0.106,1.282,1.068,-1.343,60.000,20549.000,1.000
-6.739,-9.157,-3.564,-7.633,-3.840,-5.855,-8.308,-11.489,-0.162,1.000,0.105,1.068,1.099,-1.343,60.000,20550.000,1.000
-8.343,-10.083,-4.419,-7.848,-4.379,-6.230,-8.938,-11.025,-0.161,0.999,0.106,1.007,1.129,-1.190,60.000,20551.000,1.000
-10.328,-12.036,-6.171,-9.089,-6.179,-7.980,-10.797,-11.826,-0.164,0.998,0.107,1.007,1.129,-1.160,60.000,20552.000,1.000
-12.057,-14.659,-8.657,-11.359,-8.515,-10.912,-13.339,-14.065,-0.163,0.999,0.106,0.946,1.099,-1.129,60.000,20553.000,1.000
-13.039,-16.923,-10.725,-13.209,-10.452,-13.724,-15.523,-16.243,-0.163,0.999,0.106,1.160,1.099,-1.038,60.000,20554.000,1.000
-12.999,-17.699,-11.023,-12.916,-11.202,-14.906,-16.342,-16.454,-0.162,0.997,0.110,1.038,1.160,-0.885,60.000,20555.000,1.000
-12.036,-16.760,-9.463,-10.423,-10.479,-14.099,-15.445,-14.295,-0.163,0.996,0.108,1.038,1.129,-0.793,60.000,20556.000,1.000
-10.725,-15.006,-7.500,-7.543,-8.702,-12.308,-13.401,-11.166,-0.164,0.994,0.105,0.946,1.221,-0.641,60.000,20557.000,1.000
-9.654,-13.351,-6.459,-5.847,-6.589,-10.540,-11.099,-8.470,-0.165,0.991,0.104,1.068,1.282,-0.519,60.000,20558.000,1.000
-8.729,-11.591,-5.934,-4.819,-4.462,-8.568,-8.910,-6.035,-0.167,0.991,0.105,1.038,1.190,-0.427,60.000,20559.000,1.000
-7.257,-8.827,-4.516,-2.807,-2.163,-5.542,-6.717,-2.860,-0.169,0.990,0.106,1.190,1.160,-0.427,60.000,20560.000,1.000
-4.724,-4.783,-1.818,0.615,0.451,-1.518,-4.597,1.022,-0.170,0.993,0.103,1.373,1.190,-0.427,60.000,20561.000,1.000
-1.153,-0.159,1.101,4.241,3.304,2.436,-2.954,4.421,-0.173,0.991,0.104,1.404,1.038,-0.519,60.000,20562.000,1.000
3.265,4.321,3.352,7.117,6.351,5.682,-1.966,6.656,-0.171,0.993,0.104,1.526,0.946,-0.397,60.000,20563.000,1.000
8.474,8.621,5.416,9.779,9.608,8.725,-1.414,8.351,-0.172,0.994,0.104,1.404,0.916,-0.488,60.000,20564.000,1.000
14.381,12.925,8.285,13.151,12.826,12.090,-1.261,10.169,-0.170,0.993,0.103,1.465,0.732,-0.458,60.000,20565.000,1.000
20.693,16.888,11.950,16.933,15.481,15.172,-1.859,11.518,-0.170,0.993,0.104,1.526,0.671,-0.519,60.000,20566.000,1.000
27.084,19.898,15.440,19.887,17.287,16.904,-3.214,11.283,-0.169,0.992,0.103,1.556,0.549,-0.488,60.000,20567.000,1.000
33.321,21.894,18.133,21.521,18.456,17.228,-4.474,9.541,-0.170,0.993,0.106,1.556,0.427,-0.458,60.000,20568.000,1.000
39.091,23.442,20.392,22.753,19.337,17.287,-4.511,7.862,-0.168,0.994,0.106,1.770,0.366,-0.397,60.000,20569.000,1.000
43.820,24.963,22.760,24.627,20.049,18.153,-2.851,7.789,-0.167,0.996,0.103,1.831,0.366,-0.397,60.000,20570.000,1.000
46.808,26.149,24.872,26.814,20.529,19.692,0.068,9.336,-0.167,0.997,0.105,1.740,0.275,-0.275,60.000,20571.000,1.000
47.579,26.257,25.567,27.863,20.661,20.782,3.264,11.179,-0.163,0.999,0.103,1.617,0.275,-0.031,60.000,20572.000,1.000
46.060,24.827,24.054,26.850,20.192,20.406,5.603,12.140,-0.163,0.997,0.104,1.709,0.336,-0.031,60.000,20573.000,1.000
42.417,21.977,20.679,24.299,18.724,18.348,6.153,12.198,-0.163,0.995,0.102,1.770,0.458,-0.061,60.000,20574.000,1.000
37.009,18.249,16.504,21.409,16.153,15.117,4.711,12.053,-0.161,0.997,0.106,1.709,0.488,0.092,60.000,20575.000,1.000
30.532,14.324,12.328,18.722,13.059,11.447,2.132,12.036,-0.159,0.998,0.107,1.709,0.580,0.214,60.000,20576.000,1.000
23.883,10.752,8.304,15.878,10.347,7.983,-0.205,11.779,-0.161,0.999,0.108,1.770,0.641,0.427,60.000,20577.000,1.000
17.654,7.874,4.466,12.616,8.448,5.297,-1.457,10.972,-0.159,0.999,0.104,1.648,0.793,0.427,60.000,20578.000,1.000
11.833,5.755,1.134,9.432,6.920,3.715,-1.895,9.880,-0.159,1.001,0.104,1.495,0.824,0.702,60.000,20579.000,1.000
6.017,3.995,-1.559,6.842,4.895,2.885,-2.453,8.792,-0.159,1.000,0.108,1.343,0.854,0.824,60.000,20580.000,1.000
-0.076,1.889,-4.165,4.433,2.038,1.883,-3.695,7.376,-0.157,0.999,0.108,1.312,1.038,1.038,60.000,20581.000,1.000
-6.219,-0.964,-7.414,1.320,-1.041,0.057,-5.246,5.113,-0.156,1.001,0.109,1.221,1.038,1.068,60.000,20582.000,1.000
-11.838,-4.270,-11.244,-2.525,-3.454,-2.334,-6.284,2.254,-0.159,1.001,0.107,1.099,0.977,1.251,60.000,20583.000,1.000
-16.468,-7.298,-14.606,-5.899,-4.863,-4.357,-6.408,-0.062,-0.159,1.000,0.107,1.190,1.160,1.251,60.000,20584.000,1.000
-19.862,-9.329,-16.283,-7.508,-5.368,-5.084,-5.739,-0.779,-0.158,1.000,0.106,1.068,1.190,1.160,60.000,20585.000,1.000
-21.895,-9.967,-15.958,-7.329,-4.939,-4.111,-4.442,0.019,-0.157,1.000,0.106,1.038,1.312,1.221,60.000,20586.000,1.000
-22.758,-9.381,-14.593,-6.707,-3.631,-1.845,-2.831,0.995,-0.155,0.999,0.107,0.824,1.343,1.160,60.000,20587.000,1.000
-23.193,-8.376,-13.675,-7.060,-2.303,0.434,-1.968,0.548,-0.154,1.001,0.105,0.702,1.465,1.068,60.000,20588.000,1.000
-24.122,-7.938,-14.028,-8.637,-2.417,1.155,-3.359,-1.979,-0.153,0.998,0.106,0.793,1.495,0.854,60.000,20589.000,1.000
-25.865,-8.539,-15.438,-10.664,-4.752,-0.514,-7.559,-6.011,-0.153,0.995,0.105,0.885,1.526,0.824,60.000,20590.000,1.000
-27.800,-9.847,-17.240,-12.446,-8.490,-4.129,-13.248,-10.401,-0.153,0.993,0.102,0.885,1.587,0.793,60.000,20591.000,1.000
-28.794,-10.917,-18.761,-13.784,-11.633,-8.101,-17.728,-13.929,-0.152,0.994,0.103,1.007,1.770,0.488,60.000,20592.000,1.000
-28.144,-10.756,-19.291,-14.421,-12.466,-10.382,-18.553,-15.301,-0.151,0.993,0.105,1.099,1.678,0.397,60.000,20593.000,1.000
-26.454,-9.271,-18.478,-14.033,-11.051,-9.980,-15.511,-13.837,-0.150,0.994,0.108,1.099,1.801,0.275,60.000,20594.000,1.000
-25.515,-7.806,-17.091,-13.122,-9.381,-8.249,-11.308,-10.762,-0.149,0.993,0.106,1.160,1.953,0.061,60.000,20595.000,1.000
-26.927,-8.273,-16.845,-13.220,-9.702,-8.016,-9.649,-9.033,-0.148,0.992,0.105,1.282,2.106,-0.153,60.000,20596.000,1.000
-30.716,-11.499,-18.964,-15.551,-12.602,-11.013,-12.230,-11.009,-0.148,0.991,0.106,1.434,2.197,-0.275,60.000,20597.000,1.000
-35.320,-16.409,-22.848,-19.536,-16.795,-16.317,-17.645,-16.296,-0.148,0.990,0.107,1.556,2.258,-0.397,60.000,20598.000,1.000
-38.734,-20.676,-26.243,-22.912,-20.358,-21.178,-22.843,-22.012,-0.146,0.990,0.104,1.648,2.350,-0.458,60.000,20599.000,1.000
-39.725,-22.352,-26.983,-23.619,-21.938,-23.289,-25.372,-25.161,-0.146,0.989,0.104,1.953,2.472,-0.702,60.000,20600.000,1.000
-38.368,-21.196,-24.779,-21.606,-21.206,-22.465,-24.620,-24.803,-0.147,0.986,0.105,2.136,2.655,-0.916,60.000,20601.000,1.000
-35.751,-18.511,-21.198,-18.531,-18.649,-20.281,-21.516,-22.006,-0.146,0.986,0.106,2.319,2.747,-1.099,60.000,20602.000,1.000
-33.217,-15.844,-17.969,-15.802,-15.215,-18.347,-17.572,-18.138,-0.147,0.988,0.104,2.472,2.869,-1.282,60.000,20603.000,1.000
-31.742,-14.051,-15.710,-13.433,-12.060,-17.270,-14.302,-13.793,-0.149,0.989,0.104,2.655,3.052,-1.434,60.000,20604.000,1.000
-31.674,-13.345,-14.262,-10.875,-10.106,-16.905,-12.781,-9.221,-0.150,0.992,0.104,2.747,3.052,-1.465,60.000,20605.000,1.000
-32.741,-13.679,-13.672,-8.394,-9.497,-16.943,-13.023,-5.109,-0.152,0.992,0.106,2.838,3.113,-1.678,60.000,20606.000,1.000
-34.277,-14.848,-14.353,-7.078,-9.632,-17.082,-13.928,-2.473,-0.153,0.994,0.108,2.899,3.082,-1.648,60.000,20607.000,1.000
-35.520,-16.303,-16.243,-7.452,-9.814,-16.864,-14.147,-1.691,-0.155,0.994,0.107,3.052,3.113,-1.709,60.000,20608.000,1.000
-35.826,-17.135,-18.209,-8.583,-9.698,-15.679,-13.013,-1.974,-0.157,0.996,0.106,3.143,3.052,-1.740,60.000,20609.000,1.000
-34.898,-16.671,-18.877,-9.084,-9.270,-13.290,-10.819,-2.204,-0.157,0.997,0.107,3.113,2.991,-1.770,60.000,20610.000,1.000
-32.986,-15.153,-18.076,-8.795,-8.658,-10.334,-8.443,-2.141,-0.159,0.996,0.106,3.143,2.899,-1.770,60.000,20611.000,1.000
-30.727,-13.554,-16.918,-8.794,-7.994,-7.972,-6.751,-2.361,-0.161,0.997,0.106,3.265,2.838,-1.740,60.000,20612.000,1.000
-28.701,-12.607,-16.348,-9.730,-7.376,-6.906,-6.160,-3.062,-0.161,0.997,0.104,3.418,2.625,-1.740,60.000,20613.000,1.000
-27.144,-12.193,-16.101,-10.827,-6.855,-6.771,-6.467,-3.431,-0.162,0.997,0.103,3.418,2.472,-1.709,60.000,20614.000,1.000
-26.006,-11.784,-15.329,-10.916,-6.407,-6.715,-7.062,-2.590,-0.165,0.995,0.102,3.326,2.228,-1.709,60.000,20615.000,1.000
-25.110,-11.228,-13.850,-10.013,-5.925,-6.474,-7.420,-0.898,-0.163,0.995,0.101,3.326,2.228,-1.740,60.000,20616.000,1.000
-24.211,-10.797,-12.279,-9.266,-5.280,-6.467,-7.367,0.265,-0.164,0.993,0.101,3.296,1.984,-1.709,60.000,20617.000,1.000
-23.086,-10.634,-11.103,-9.459,-4.508,-6.978,-7.014,-0.019,-0.164,0.995,0.101,3.296,1.831,-1.587,60.000,20618.000,1.000
-21.621,-10.426,-10.043,-10.083,-3.883,-7.657,-6.518,-1.349,-0.165,0.995,0.102,3.357,1.587,-1.434,60.000,20619.000,1.000
-19.882,-9.792,-8.585,-10.162,-3.702,-8.013,-5.952,-2.739,-0.166,0.996,0.099,3.448,1.343,-1.404,60.000,20620.000,1.000
-18.146,-8.887,-6.963,-9.641,-4.020,-8.191,-5.398,-3.887,-0.166,0.995,0.098,3.326,1.190,-1.373,60.000,20621.000,1.000
-16.687,-8.211,-6.015,-9.307,-4.524,-8.693,-4.958,-5.180,-0.166,0.995,0.098,3.418,0.916,-1.312,60.000,20622.000,1.000
-15.456,-7.817,-5.941,-9.375,-4.688,-9.360,-4.610,-6.553,-0.166,0.994,0.098,3.387,0.702,-1.221,60.000,20623.000,1.000
-14.163,-7.158,-5.793,-8.910,-4.172,-9.204,-4.246,-7.001,-0.167,0.994,0.096,3.296,0.519,-1.221,60.000,20624.000,1.000
-12.683,-5.811,-4.519,-7.012,-3.009,-7.440,-3.881,-5.590,-0.165,0.994,0.097,3.418,0.244,-1.221,60.000,20625.000,1.000
-11.266,-4.105,-2.317,-4.240,-1.481,-4.479,-3.777,-2.773,-0.165,0.995,0.097,3.296,0.122,-1.282,60.000,20626.000,1.000
-10.305,-2.825,-0.530,-2.296,0.044,-1.700,-4.257,-0.252,-0.166,0.995,0.097,3.418,-0.031,-1.251,60.000,20627.000,1.000
-9.856,-2.231,-0.064,-2.129,1.330,-0.089,-5.239,0.742,-0.167,0.999,0.094,3.296,-0.305,-1.221,60.000,20628.000,1.000
-9.415,-1.566,-0.258,-2.751,2.480,0.726,-5.993,0.748,-0.165,0.999,0.094,3.387,-0.458,-1.190,60.000,20629.000,1.000
-8.190,0.233,0.349,-2.293,3.904,1.873,-5.592,1.262,-0.163,0.998,0.097,3.235,-0.580,-1.312,60.000,20630.000,1.000
-5.595,3.408,2.398,0.026,6.020,3.870,-3.664,2.940,-0.163,0.999,0.093,3.113,-0.641,-1.343,60.000,20631.000,1.000
-1.668,7.018,5.173,3.271,8.798,6.076,-0.756,5.037,-0.164,0.999,0.091,3.052,-0.824,-1.312,60.000,20632.000,1.000
2.653,9.560,7.417,5.911,11.385,7.342,1.849,6.412,-0.162,1.002,0.088,2.838,-0.916,-1.251,60.000,20633.000,1.000
5.839,9.972,8.404,7.173,12.429,6.997,2.819,6.633,-0.164,1.000,0.091,2.777,-0.977,-1.312,60.000,20634.000,1.000
6.689,8.196,8.154,7.151,11.141,5.257,1.643,5.958,-0.161,1.001,0.091,2.655,-0.946,-1.373,60.000,20635.000,1.000
5.090,4.986,6.836,5.940,8.006,2.863,-1.005,4.556,-0.159,1.001,0.094,2.625,-1.007,-1.465,60.000,20636.000,1.000
2.006,1.342,4.493,3.391,4.385,0.484,-3.795,2.330,-0.159,1.002,0.094,2.563,-1.007,-1.434,60.000,20637.000,1.000
-1.084,-1.750,1.643,0.015,1.543,-1.476,-5.581,-0.326,-0.158,1.002,0.089,2.472,-0.977,-1.495,60.000,20638.000,1.000
-2.823,-3.370,-0.337,-2.494,0.064,-2.683,-5.902,-2.189,-0.156,1.000,0.087,2.197,-0.854,-1.526,60.000,20639.000,1.000
-2.520,-3.005,-0.167,-2.523,-0.101,-2.872,-4.982,-2.246,-0.157,0.999,0.090,2.136,-0.763,-1.495,60.000,20640.000,1.000
-0.349,-0.946,2.024,-0.250,0.763,-2.142,-3.264,-0.862,-0.156,0.997,0.088,2.136,-0.702,-1.526,60.000,20641.000,1.000
2.988,1.981,4.920,2.612,2.493,-0.905,-0.943,0.660,-0.157,0.996,0.089,1.923,-0.702,-1.556,60.000,20642.000,1.000
6.779,5.152,7.516,4.749,4.997,0.635,1.989,1.643,-0.154,0.995,0.091,1.740,-0.580,-1.556,60.000,20643.000,1.000
10.403,8.327,9.870,6.244,7.882,2.667,5.361,2.648,-0.156,0.995,0.089,1.648,-0.366,-1.648,60.000,20644.000,1.000
13.182,11.131,12.230,7.499,10.295,5.115,8.521,4.293,-0.156,0.998,0.088,1.617,-0.153,-1.709,60.000,20645.000,1.000
14.546,12.834,14.009,7.984,11.394,7.158,10.548,6.002,-0.157,0.996,0.088,1.495,-0.061,-1.678,60.000,20646.000,1.000
14.464,12.939,14.208,6.796,11.032,7.880,10.942,6.545,-0.156,0.998,0.090,1.312,0.092,-1.740,60.000,20647.000,1.000
13.542,11.801,12.722,4.204,9.821,7.275,10.073,5.671,-0.157,0.996,0.089,1.251,0.275,-1.648,60.000,20648.000,1.000
12.737,10.568,10.857,2.075,8.688,6.452,9.068,4.745,-0.159,0.997,0.088,1.099,0.427,-1.709,60.000,20649.000,1.000
13.045,10.524,10.370,2.489,8.572,6.868,9.333,5.543,-0.160,0.998,0.087,1.007,0.580,-1.831,60.000,20650.000,1.000
15.049,12.198,11.881,5.813,10.119,9.095,11.731,8.441,-0.161,0.998,0.090,0.885,0.793,-1.892,60.000,20651.000,1.000
18.369,14.916,14.255,10.245,13.132,12.322,15.886,12.006,-0.163,0.997,0.089,0.610,0.916,-1.984,60.000,20652.000,1.000
21.683,17.355,15.734,13.443,16.402,15.212,20.401,14.490,-0.163,0.998,0.090,0.580,1.099,-2.014,60.000,20653.000,1.000
23.512,18.511,15.495,14.401,18.331,16.962,23.730,15.304,-0.162,0.995,0.089,0.397,1.160,-2.075,60.000,20654.000,1.000
23.077,18.030,13.815,13.445,17.802,17.218,24.776,14.698,-0.164,0.993,0.088,0.397,1.251,-2.106,60.000,20655.000,1.000
20.543,15.875,11.037,10.857,14.629,15.414,22.999,12.545,-0.164,0.994,0.091,0.427,1.404,-2.075,60.000,20656.000,1.000
16.842,12.301,7.212,6.577,9.593,11.105,18.684,8.478,-0.166,0.991,0.089,0.366,1.404,-2.136,60.000,20657.000,1.000
13.340,8.298,2.960,1.432,4.249,5.180,13.360,3.286,-0.167,0.996,0.089,0.305,1.465,-2.106,60.000,20658.000,1.000
11.272,5.483,-0.100,-2.410,0.304,0.031,9.300,-0.773,-0.168,0.995,0.091,0.244,1.434,-2.075,60.000,20659.000,1.000
11.230,5.113,-0.414,-2.965,-1.147,-1.978,8.179,-1.646,-0.170,0.996,0.094,0.183,1.617,-2.075,60.000,20660.000,1.000
13.056,7.158,2.036,-0.313,-0.028,-0.225,10.092,0.650,-0.171,0.997,0.091,0.153,1.648,-2.075,60.000,20661.000,1.000
15.983,10.320,5.565,3.438,2.732,3.868,13.574,4.085,-0.172,0.995,0.090,0.061,1.740,-1.953,60.000,20662.000,1.000
18.778,12.868,8.143,6.042,5.494,7.969,16.464,6.480,-0.171,0.994,0.091,0.092,1.678,-2.014,60.000,20663.000,1.000
20.079,13.531,8.768,6.687,6.541,10.218,17.020,7.080,-0.170,0.994,0.092,0.153,1.740,-2.045,60.000,20664.000,1.000
19.049,11.862,7.597,5.816,4.987,9.865,14.757,6.428,-0.170,0.994,0.090,0.092,1.892,-1.923,60.000,20665.000,1.000
15.867,8.174,5.113,3.928,1.288,7.138,10.562,5.120,-0.172,0.995,0.091,0.122,2.045,-1.770,60.000,20666.000,1.000
11.555,3.368,1.643,1.025,-3.154,2.943,6.103,3.157,-0.173,0.994,0.088,0.183,1.923,-1.678,60.000,20667.000,1.000
7.317,-1.249,-2.279,-2.705,-6.948,-1.270,3.014,0.665,-0.174,0.994,0.090,0.305,1.801,-1.556,60.000,20668.000,1.000
3.914,-4.489,-5.621,-6.233,-9.430,-3.991,2.123,-1.414,-0.175,0.995,0.093,0.183,1.953,-1.404,60.000,20669.000,1.000
1.604,-5.898,-7.408,-8.260,-10.621,-4.535,3.094,-2.015,-0.175,0.997,0.093,0.244,1.892,-1.251,60.000,20670.000,1.000
0.640,-5.696,-7.370,-8.282,-10.532,-3.285,4.987,-0.969,-0.177,0.997,0.091,0.183,1.923,-1.099,60.000,20671.000,1.000
1.481,-4.201,-5.889,-6.753,-8.826,-0.995,7.122,1.105,-0.179,0.997,0.095,0.153,1.862,-0.854,60.000,20672.000,1.000
4.053,-1.725,-3.628,-4.425,-5.541,1.759,9.119,3.572,-0.179,0.993,0.092,0.031,1.831,-0.671,60.000,20673.000,1.000
7.093,1.129,-1.293,-1.843,-1.818,4.520,10.439,6.073,-0.179,0.995,0.093,0.092,1.801,-0.519,60.000,20674.000,1.000
8.916,3.585,0.490,0.584,0.772,6.838,10.473,8.203,-0.179,0.995,0.093,0.092,1.740,-0.427,60.000,20675.000,1.000
8.724,5.018,1.081,2.152,1.439,8.194,8.944,9.103,-0.179,0.998,0.094,0.183,1.526,-0.336,60.000,20676.000,1.000
6.749,4.998,-0.273,1.806,0.331,7.974,5.953,7.700,-0.182,1.000,0.095,0.244,1.465,-0.183,60.000,20677.000,1.000
3.524,3.358,-3.922,-0.987,-2.133,5.874,1.857,3.761,-0.182,1.001,0.096,0.183,1.251,-0.092,60.000,20678.000,1.000
-0.352,0.519,-8.962,-5.281,-5.497,2.503,-2.657,-1.374,-0.181,1.005,0.097,0.183,1.190,0.092,60.000,20679.000,1.000
-3.868,-2.373,-13.334,-9.000,-8.852,-0.658,-6.431,-5.469,-0.181,1.003,0.096,0.092,1.068,0.214,60.000,20680.000,1.000
-5.692,-3.970,-15.175,-10.516,-10.780,-2.211,-8.174,-7.060,-0.178,1.001,0.097,-0.031,0.885,0.366,60.000,20681.000,1.000
-4.999,-3.665,-14.110,-9.727,-10.260,-1.789,-7.286,-6.378,-0.178,0.997,0.097,-0.092,0.824,0.458,60.000,20682.000,1.000
-2.093,-1.964,-11.046,-7.411,-7.552,0.036,-4.283,-4.518,-0.177,0.992,0.096,-0.183,0.732,0.549,60.000,20683.000,1.000
1.881,0.146,-6.953,-4.000,-3.977,2.554,-0.251,-2.095,-0.177,0.994,0.094,0.000,0.610,0.519,60.000,20684.000,1.000
5.743,1.975,-2.349,0.377,-0.860,5.331,4.050,0.811,-0.176,0.992,0.094,0.122,0.488,0.580,60.000,20685.000,1.000
8.878,3.341,2.203,4.956,1.317,8.032,8.544,3.809,-0.173,0.994,0.097,0.183,0.427,0.641,60.000,20686.000,1.000
11.274,4.399,5.899,8.345,2.924,10.348,13.436,6.138,-0.174,0.995,0.098,0.092,0.305,0.732,60.000,20687.000,1.000
13.165,5.570,8.402,9.800,4.560,12.303,18.652,7.619,-0.173,0.997,0.098,0.214,0.366,0.763,60.000,20688.000,1.000
14.600,7.317,10.266,9.953,6.420,14.305,23.666,8.977,-0.170,0.996,0.099,0.183,0.305,0.732,60.000,20689.000,1.000
15.068,9.300,11.899,9.619,7.893,16.232,27.499,10.600,-0.172,0.995,0.095,0.183,0.305,0.671,60.000,20690.000,1.000
13.468,9.763,12.238,8.149,7.629,16.518,28.786,11.212,-0.169,0.995,0.094,0.336,0.244,0.702,60.000,20691.000,1.000
8.983,6.716,9.433,3.978,4.477,13.178,26.468,8.704,-0.169,0.996,0.096,0.458,0.305,0.732,60.000,20692.000,1.000
2.093,0.003,3.084,-3.067,-1.420,5.985,20.817,2.534,-0.170,0.997,0.098,0.488,0.275,0.671,60.000,20693.000,1.000
-5.646,-8.390,-4.967,-10.933,-8.704,-3.046,13.458,-5.352,-0.166,0.998,0.099,0.549,0.397,0.610,60.000,20694.000,1.000
-12.472,-15.845,-12.035,-16.939,-15.600,-11.155,6.472,-12.109,-0.165,1.001,0.097,0.458,0.427,0.641,60.000,20695.000,1.000
-16.829,-20.450,-16.270,-19.662,-20.298,-16.288,1.753,-15.996,-0.164,0.999,0.095,0.519,0.519,0.732,60.000,20696.000,1.000
-17.693,-21.427,-17.245,-19.315,-21.379,-17.599,0.563,-16.844,-0.164,0.998,0.091,0.519,0.397,0.793,60.000,20697.000,1.000
-15.058,-19.016,-15.404,-16.738,-18.625,-15.314,2.918,-15.147,-0.161,0.994,0.092,0.427,0.519,0.763,60.000,20698.000,1.000
-9.940,-14.098,-11.266,-12.469,-13.318,-10.383,7.324,-11.299,-0.157,0.990,0.092,0.519,0.732,0.732,60.000,20699.000,1.000
-3.777,-7.898,-5.412,-7.007,-7.474,-4.235,11.485,-5.935,-0.157,0.985,0.084,0.580,0.916,0.732,60.000,20700.000,1.000
2.143,-1.884,0.919,-1.562,-2.671,1.443,13.627,-0.500,-0.154,0.977,0.085,0.763,1.007,0.671,60.000,20701.000,1.000
6.823,2.479,5.888,2.185,0.474,5.230,13.358,3.231,-0.153,0.975,0.085,1.251,1.129,0.458,60.000,20702.000,1.000
9.585,4.391,8.220,3.395,2.017,6.731,11.455,4.456,-0.151,0.972,0.089,1.740,1.404,0.275,60.000,20703.000,1.000
10.305,4.299,8.257,2.890,2.278,6.810,9.034,3.953,-0.151,0.969,0.091,2.075,1.740,0.214,60.000,20704.000,1.000
9.590,3.553,7.531,2.336,1.743,6.713,6.910,3.162,-0.149,0.969,0.087,2.502,2.106,0.061,60.000,20705.000,1.000
8.609,3.383,7.347,2.667,1.149,6.977,5.574,2.767,-0.149,0.968,0.088,2.930,2.319,0.000,60.000,20706.000,1.000
8.533,4.247,8.034,3.617,1.336,7.435,5.415,2.486,-0.149,0.973,0.094,3.296,2.625,-0.061,60.000,20707.000,1.000
9.913,5.956,9.400,4.727,2.768,8.006,6.653,2.200,-0.148,0.976,0.095,3.632,2.960,-0.031,60.000,20708.000,1.000
12.497,8.129,11.435,6.319,5.205,9.023,9.066,2.733,-0.154,0.980,0.094,3.845,3.265,-0.061,60.000,20709.000,1.000
15.472,10.319,14.106,8.914,7.832,10.561,11.791,4.945,-0.156,0.988,0.094,3.967,3.357,-0.061,60.000,20710.000,1.000
17.786,11.788,16.577,11.864,9.636,11.647,13.423,8.155,-0.156,0.994,0.094,4.120,3.571,-0.122,60.000,20711.000,1.000
18.723,11.852,17.505,13.530,10.000,10.978,12.942,10.346,-0.160,1.003,0.094,4.089,3.632,-0.031,60.000,20712.000,1.000
18.560,10.866,16.592,13.279,9.273,8.745,10.835,10.341,-0.161,1.012,0.095,3.723,3.632,-0.122,60.000,20713.000,1.000
18.369,10.293,15.233,12.514,8.517,6.970,8.815,9.102,-0.163,1.017,0.095,3.387,3.571,-0.183,60.000,20714.000,1.000
18.983,11.354,15.101,13.119,8.551,7.577,8.270,8.400,-0.165,1.020,0.096,2.930,3.540,-0.244,60.000,20715.000,1.000
20.210,13.693,16.292,15.145,9.278,10.453,9.178,8.632,-0.163,1.017,0.094,2.533,3.479,-0.214,60.000,20716.000,1.000
21.009,15.537,17.171,16.561,9.785,13.505,10.267,8.410,-0.160,1.013,0.093,2.106,3.510,-0.336,60.000,20717.000,1.000
20.417,15.230,16.152,15.469,9.072,14.465,9.994,6.384,-0.160,1.009,0.094,1.709,3.571,-0.366,60.000,20718.000,1.000
18.359,12.570,13.387,12.179,6.851,12.603,7.596,3.034,-0.159,1.006,0.091,1.465,3.571,-0.366,60.000,20719.000,1.000
15.476,8.604,10.307,8.575,3.736,8.797,3.482,0.093,-0.157,1.006,0.090,1.282,3.540,-0.427,60.000,20720.000,1.000
12.519,4.606,7.940,5.962,0.891,4.528,-0.997,-1.311,-0.158,1.006,0.092,1.282,3.571,-0.397,60.000,20721.000,1.000
10.210,1.657,6.419,4.483,-0.326,1.220,-3.990,-1.049,-0.160,1.008,0.091,1.007,3.479,-0.458,60.000,20722.000,1.000
9.128,0.592,5.748,4.149,0.964,0.005,-4.036,0.919,-0.160,1.011,0.094,0.763,3.510,-0.397,60.000,20723.000,1.000
9.292,1.675,6.208,5.343,4.407,1.408,-1.171,4.685,-0.161,1.008,0.095,0.458,3.540,-0.366,60.000,20724.000,1.000
10.160,4.387,7.936,8.147,8.604,4.964,2.911,9.606,-0.163,1.001,0.093,0.244,3.510,-0.275,60.000,20725.000,1.000
10.936,7.442,10.165,11.434,11.971,8.975,5.852,13.841,-0.164,0.993,0.091,0.122,3.479,-0.214,60.000,20726.000,1.000
10.740,9.100,11.222,13.113,13.293,11.010,5.862,15.106,-0.165,0.985,0.087,0.031,3.387,-0.153,60.000,20727.000,1.000
9.218,8.389,10.139,12.120,12.254,9.671,2.792,12.608,-0.165,0.978,0.088,0.122,3.357,-0.153,60.000,20728.000,1.000
7.364,6.380,8.270,10.078,9.968,6.140,-1.456,8.336,-0.166,0.971,0.089,0.488,3.204,-0.305,60.000,20729.000,1.000
7.000,5.396,8.225,9.879,8.377,3.222,-4.158,5.517,-0.166,0.967,0.089,0.580,3.082,-0.305,60.000,20730.000,1.000
9.092,6.728,11.037,12.542,8.712,2.703,-3.982,5.534,-0.168,0.966,0.083,0.916,2.960,-0.336,60.000,20731.000,1.000
12.839,9.563,15.108,16.241,10.649,4.039,-1.971,6.937,-0.172,0.973,0.074,1.282,2.777,-0.366,60.000,20732.000,1.000
16.243,11.971,17.895,18.337,12.698,5.394,-0.453,7.421,-0.175,0.986,0.077,1.831,2.655,-0.671,60.000,20733.000,1.000
17.388,12.498,18.100,17.710,13.292,5.444,-1.078,6.111,-0.173,1.002,0.094,2.380,2.350,-0.824,60.000,20734.000,1.000
15.559,10.967,16.187,15.041,11.825,4.160,-3.775,3.721,-0.171,1.013,0.106,1.984,2.075,-0.824,60.000,20735.000,1.000
11.519,8.195,13.246,11.384,8.935,2.270,-7.214,1.111,-0.169,1.015,0.104,0.916,1.709,-0.671,60.000,20736.000,1.000
6.882,5.252,9.916,7.233,5.878,0.449,-9.958,-1.475,-0.167,1.014,0.097,0.519,1.434,-0.519,60.000,20737.000,1.000
3.151,2.936,6.551,3.069,3.620,-0.908,-11.295,-3.777,-0.166,1.014,0.102,0.061,1.343,-0.458,60.000,20738.000,1.000
1.131,1.660,3.868,0.064,2.452,-1.515,-11.379,-4.906,-0.165,1.010,0.111,-0.122,1.068,-0.366,60.000,20739.000,1.000
0.949,1.550,2.818,-0.528,2.287,-1.151,-10.767,-3.956,-0.166,1.006,0.111,-0.488,0.824,-0.244,60.000,20740.000,1.000
2.373,2.476,3.714,1.344,3.072,0.115,-9.867,-1.125,-0.165,0.999,0.109,-0.946,0.610,-0.244,60.000,20741.000,1.000
5.000,3.991,5.824,4.325,4.682,1.729,-8.861,2.192,-0.167,0.992,0.105,-1.099,0.549,-0.214,60.000,20742.000,1.000
8.251,5.520,8.074,6.906,6.594,2.974,-7.856,4.618,-0.165,0.989,0.105,-1.038,0.427,-0.336,60.000,20743.000,1.000
11.497,6.813,10.037,8.709,8.057,3.621,-6.805,5.941,-0.165,0.987,0.106,-0.702,0.366,-0.397,60.000,20744.000,1.000
14.345,8.098,12.001,10.337,8.755,4.137,-5.440,6.868,-0.162,0.988,0.107,-0.763,0.244,-0.519,60.000,20745.000,1.000
16.701,9.606,14.066,12.077,9.062,5.138,-3.515,7.873,-0.162,0.988,0.107,-0.671,0.183,-0.519,60.000,20746.000,1.000
18.390,10.974,15.457,13.148,9.385,6.621,-1.318,8.573,-0.160,0.988,0.106,-0.580,0.122,-0.641,60.000,20747.000,1.000
18.821,11.258,14.963,12.442,9.345,7.765,0.100,8.283,-0.158,0.989,0.110,-0.366,0.244,-0.610,60.000,20748.000,1.000
17.350,9.683,12.104,9.805,8.026,7.686,-0.430,6.966,-0.156,0.992,0.108,-0.244,0.244,-0.671,60.000,20749.000,1.000
14.069,6.425,7.637,6.226,5.096,6.329,-3.067,5.299,-0.155,0.992,0.109,-0.031,0.305,-0.671,60.000,20750.000,1.000
9.969,2.515,2.852,2.712,1.333,4.378,-6.652,3.769,-0.155,0.994,0.107,-0.092,0.366,-0.610,60.000,20751.000,1.000
6.308,-0.889,-1.275,-0.456,-2.010,2.475,-9.523,2.241,-0.154,0.993,0.108,-0.031,0.458,-0.641,60.000,20752.000,1.000
3.980,-2.917,-4.012,-3.063,-4.019,0.967,-10.427,0.728,-0.157,0.992,0.110,0.031,0.641,-0.610,60.000,20753.000,1.000
3.240,-3.080,-4.637,-4.323,-4.450,0.188,-8.962,-0.132,-0.157,0.990,0.108,0.153,0.763,-0.610,60.000,20754.000,1.000
3.581,-1.671,-3.129,-3.743,-3.804,0.149,-5.862,0.007,-0.160,0.988,0.107,0.366,0.854,-0.641,60.000,20755.000,1.000
3.959,0.012,-0.847,-2.283,-3.078,-0.005,-2.791,0.294,-0.161,0.986,0.108,0.488,0.946,-0.702,60.000,20756.000,1.000
3.573,0.566,0.341,-1.708,-3.000,-1.332,-1.284,-0.535,-0.162,0.983,0.105,0.824,0.977,-0.763,60.000,20757.000,1.000
2.459,-0.236,-0.235,-2.690,-3.481,-3.741,-1.705,-2.539,-0.163,0.983,0.106,0.977,1.038,-0.854,60.000,20758.000,1.000
1.234,-1.331,-1.545,-4.118,-3.873,-5.844,-3.241,-4.281,-0.161,0.983,0.108,1.404,1.068,-0.977,60.000,20759.000,1.000
0.354,-1.541,-2.143,-4.480,-3.616,-6.249,-4.717,-4.342,-0.164,0.988,0.103,1.617,1.068,-0.977,60.000,20760.000,1.000
-0.234,-0.666,-1.680,-3.505,-2.541,-4.722,-5.242,-2.754,-0.163,0.990,0.101,1.770,1.160,-1.038,60.000,20761.000,1.000
-0.798,0.598,-0.970,-2.110,-0.790,-2.046,-4.355,-0.659,-0.164,0.997,0.101,1.892,1.190,-1.099,60.000,20762.000,1.000
-1.467,1.464,-0.862,-1.120,1.181,0.838,-2.220,1.050,-0.163,1.004,0.105,1.953,1.251,-1.251,60.000,20763.000,1.000
-2.262,1.552,-1.485,-0.596,2.546,3.226,0.147,2.267,-0.161,1.006,0.111,1.831,1.190,-1.190,60.000,20764.000,1.000
-3.190,0.837,-2.516,-0.369,2.511,4.474,1.315,3.079,-0.163,1.006,0.102,1.312,1.282,-1.129,60.000,20765.000,1.000
-4.156,-0.545,-3.802,-0.724,0.977,3.975,0.381,3.149,-0.163,0.999,0.099,1.373,1.373,-1.038,60.000,20766.000,1.000
-4.866,-2.284,-5.375,-2.109,-1.282,1.630,-2.452,2.001,-0.162,0.997,0.098,1.099,1.526,-1.038,60.000,20767.000,1.000
-4.947,-3.777,-6.879,-4.190,-3.174,-1.740,-6.117,-0.180,-0.161,0.994,0.100,1.282,1.587,-1.068,60.000,20768.000,1.000
-4.348,-4.409,-7.468,-5.774,-4.113,-4.805,-9.523,-2.460,-0.161,0.993,0.096,1.434,1.678,-1.068,60.000,20769.000,1.000
-3.695,-4.291,-6.773,-6.085,-4.474,-6.879,-12.342,-4.194,-0.162,0.992,0.096,1.343,1.831,-1.007,60.000,20770.000,1.000
-4.041,-4.449,-5.725,-5.818,-5.196,-8.527,-14.965,-5.829,-0.163,0.994,0.099,1.465,1.862,-0.916,60.000,20771.000,1.000
-5.894,-5.760,-5.712,-6.299,-6.716,-10.617,-17.592,-8.107,-0.165,0.999,0.098,1.434,1.984,-0.885,60.000,20772.000,1.000
-8.550,-7.772,-6.876,-7.650,-8.392,-12.933,-19.611,-10.611,-0.166,0.999,0.098,1.465,1.923,-0.732,60.000,20773.000,1.000
-10.621,-9.010,-7.761,-8.392,-9.139,-14.240,-20.113,-11.740,-0.168,1.002,0.098,1.434,1.984,-0.610,60.000,20774.000,1.000
-11.061,-8.357,-6.776,-7.061,-8.363,-13.583,-18.777,-10.286,-0.167,1.002,0.100,1.312,1.984,-0.488,60.000,20775.000,1.000
-9.676,-5.972,-3.765,-3.874,-6.224,-11.218,-16.106,-6.828,-0.168,1.002,0.094,1.251,2.045,-0.275,60.000,20776.000,1.000
-6.962,-2.982,0.002,-0.463,-3.317,-8.286,-12.971,-3.335,-0.166,1.000,0.096,1.312,2.014,-0.244,60.000,20777.000,1.000
-3.733,-0.470,3.183,1.904,-0.316,-5.769,-10.005,-1.326,-0.166,1.000,0.097,1.251,1.923,-0.031,60.000,20778.000,1.000
-0.837,1.128,5.383,3.401,2.185,-3.942,-7.413,-0.701,-0.168,0.998,0.097,1.099,1.984,0.000,60.000,20779.000,1.000
1.123,1.926,6.953,4.952,3.890,-2.578,-5.069,-0.358,-0.168,0.999,0.094,1.099,1.923,0.061,60.000,20780.000,1.000
2.084,2.324,8.263,6.951,5.128,-1.293,-2.547,0.512,-0.167,0.994,0.093,1.007,1.862,0.122,60.000,20781.000,1.000
2.466,2.842,9.425,8.973,6.768,0.351,0.739,2.047,-0.166,0.995,0.093,1.099,1.862,0.183,60.000,20782.000,1.000
2.668,3.905,10.562,10.524,9.445,2.699,4.999,4.223,-0.167,0.996,0.094,1.068,1.770,0.061,60.000,20783.000,1.000
2.620,5.386,11.689,11.459,12.599,5.450,9.326,6.906,-0.167,0.995,0.094,1.068,1.617,-0.031,60.000,20784.000,1.000
1.736,6.242,12.092,11.413,14.367,7.205,11.747,9.164,-0.170,0.990,0.095,0.977,1.526,-0.092,60.000,20785.000,1.000
-0.692,5.012,10.359,9.419,12.927,6.195,10.585,9.309,-0.169,0.986,0.095,1.129,1.495,-0.092,60.000,20786.000,1.000
-4.889,1.043,5.600,4.801,8.078,1.847,5.959,6.286,-0.168,0.981,0.096,1.160,1.404,-0.092,60.000,20787.000,1.000
-10.145,-4.728,-1.251,-1.423,1.483,-4.472,-0.217,1.086,-0.167,0.977,0.091,1.404,1.282,-0.153,60.000,20788.000,1.000
-14.942,-10.215,-7.593,-6.540,-4.482,-10.356,-5.624,-3.589,-0.169,0.982,0.093,1.984,1.251,-0.153,60.000,20789.000,1.000
-17.725,-13.511,-10.907,-8.107,-8.052,-13.954,-8.786,-5.376,-0.166,0.992,0.095,2.380,1.160,-0.183,60.000,20790.000,1.000
-17.738,-13.928,-10.517,-5.947,-8.632,-14.738,-9.240,-4.020,-0.165,0.997,0.100,2.502,1.160,-0.244,60.000,20791.000,1.000
-15.282,-12.062,-7.730,-2.045,-6.723,-13.297,-7.313,-1.217,-0.168,1.005,0.100,2.136,0.977,-0.183,60.000,20792.000,1.000
-11.446,-9.136,-4.426,1.346,-3.642,-10.796,-4.120,1.017,-0.170,1.011,0.092,1.831,0.854,-0.153,60.000,20793.000,1.000
-7.572,-6.237,-1.663,3.295,-0.934,-8.386,-1.206,1.744,-0.169,1.018,0.092,1.740,0.732,-0.122,60.000,20794.000,1.000
-4.617,-3.917,0.478,4.124,0.467,-6.729,0.315,1.179,-0.164,1.021,0.107,1.617,0.641,-0.153,60.000,20795.000,1.000
-2.780,-2.248,2.156,4.314,0.699,-5.974,0.319,-0.130,-0.160,1.015,0.113,1.038,0.549,-0.031,60.000,20796.000,1.000
-1.756,-1.116,3.267,3.916,0.573,-5.947,-0.494,-1.797,-0.159,1.001,0.105,0.366,0.641,0.031,60.000,20797.000,1.000
-1.218,-0.278,3.812,3.122,0.838,-6.100,-1.039,-3.276,-0.159,0.984,0.094,0.061,0.671,0.061,60.000,20798.000,1.000
-0.917,0.765,4.454,2.884,1.907,-5.465,-0.230,-3.526,-0.160,0.971,0.088,0.671,0.854,0.122,60.000,20799.000,1.000
-0.630,2.460,6.042,4.223,3.905,-3.262,2.499,-1.690,-0.162,0.970,0.091,1.282,0.885,0.000,60.000,20800.000,1.000
-0.330,4.514,8.431,6.884,6.572,0.145,6.655,1.760,-0.162,0.978,0.097,1.617,1.007,0.031,60.000,20801.000,1.000
-0.204,5.879,10.335,9.324,9.210,3.244,10.858,5.125,-0.165,0.982,0.100,1.770,0.946,0.000,60.000,20802.000,1.000
-0.312,5.841,10.768,10.382,11.120,4.719,13.870,7.103,-0.167,0.985,0.100,1.801,0.916,0.031,60.000,20803.000,1.000
-0.271,5.019,10.295,10.618,12.235,4.772,15.533,7.998,-0.166,0.986,0.099,2.106,0.793,-0.061,60.000,20804.000,1.000
0.426,4.803,10.326,11.433,13.043,4.710,16.545,8.926,-0.166,0.987,0.099,2.258,0.702,-0.031,60.000,20805.000,1.000
1.688,5.710,11.228,12.992,13.802,5.315,17.387,10.038,-0.166,0.990,0.101,2.258,0.580,-0.122,60.000,20806.000,1.000
2.712,6.805,11.822,13.784,14.089,6.055,17.671,10.203,-0.166,0.993,0.102,2.350,0.519,-0.061,60.000,20807.000,1.000
2.733,6.844,10.890,12.449,13.249,5.916,16.598,8.529,-0.166,0.993,0.105,2.350,0.427,-0.092,60.000,20808.000,1.000
1.611,5.479,8.528,9.366,11.038,4.577,13.925,5.585,-0.163,0.991,0.106,2.197,0.366,-0.092,60.000,20809.000,1.000
-0.330,3.169,5.710,6.017,7.834,2.528,10.390,2.746,-0.164,0.991,0.102,2.289,0.305,-0.122,60.000,20810.000,1.000
-2.636,0.457,3.063,3.315,4.454,0.366,7.321,0.796,-0.163,0.990,0.100,2.350,0.336,-0.092,60.000,20811.000,1.000
-4.723,-2.188,0.626,1.198,1.845,-1.506,5.880,-0.330,-0.163,0.992,0.104,2.350,0.214,-0.153,60.000,20812.000,1.000
-5.843,-4.034,-1.343,-0.289,0.731,-2.525,6.541,-0.588,-0.164,0.995,0.103,2.502,0.122,-0.031,60.000,20813.000,1.000
-5.490,-4.238,-2.021,-0.388,1.267,-1.959,8.928,0.665,-0.164,0.995,0.102,2.472,0.092,0.031,60.000,20814.000,1.000
-3.929,-2.663,-0.961,1.374,2.889,0.280,11.935,3.746,-0.166,0.995,0.101,2.350,0.061,0.031,60.000,20815.000,1.000
-2.100,-0.251,0.986,4.043,4.630,3.112,14.209,7.621,-0.167,0.997,0.098,2.411,-0.031,0.122,60.000,20816.000,1.000
-0.836,1.679,2.230,5.781,5.752,5.033,14.879,10.518,-0.164,0.995,0.098,2.441,-0.092,0.061,60.000,20817.000,1.000
-0.346,2.431,1.912,5.581,6.042,5.361,13.962,11.553,-0.162,0.995,0.097,2.563,-0.061,0.153,60.000,20818.000,1.000
-0.358,2.256,0.602,4.117,5.676,4.659,12.192,11.349,-0.163,0.994,0.098,2.502,-0.092,0.458,60.000,20819.000,1.000
-0.566,1.882,-0.494,2.772,5.006,4.046,10.547,11.017,-0.164,0.993,0.096,2.411,-0.183,0.488,60.000,20820.000,1.000
-0.941,1.720,-0.914,2.018,4.369,4.072,9.575,10.718,-0.164,0.995,0.096,2.533,-0.183,0.610,60.000,20821.000,1.000
-1.678,1.522,-1.293,1.099,3.864,4.202,8.880,9.505,-0.164,0.997,0.094,2.563,-0.153,0.641,60.000,20822.000,1.000
-2.749,0.972,-2.208,-0.557,3.401,3.612,7.533,6.718,-0.164,0.997,0.095,2.502,-0.092,0.671,60.000,20823.000,1.000
-3.621,0.381,-3.125,-2.195,2.990,2.318,5.175,3.142,-0.165,0.997,0.095,2.502,-0.061,0.763,60.000,20824.000,1.000
-3.626,0.396,-3.002,-2.552,2.773,1.065,2.385,0.269,-0.162,0.999,0.094,2.502,-0.061,0.824,60.000,20825.000,1.000
-2.550,1.138,-1.698,-1.548,2.765,0.198,-0.151,-1.419,-0.162,1.000,0.094,2.563,-0.092,0.916,60.000,20826.000,1.000
-0.787,1.967,-0.288,-0.536,2.685,-0.865,-2.497,-2.876,-0.162,1.001,0.094,2.502,-0.122,0.885,60.000,20827.000,1.000
0.963,2.168,0.081,-0.796,2.116,-2.789,-5.190,-5.076,-0.163,1.001,0.094,2.441,-0.061,0.854,60.000,20828.000,1.000
2.091,1.685,-0.686,-2.241,0.854,-5.258,-8.339,-7.692,-0.162,1.002,0.097,2.441,-0.092,1.007,60.000,20829.000,1.000
2.214,0.953,-1.948,-3.968,-1.003,-7.277,-11.461,-9.729,-0.161,1.001,0.095,2.350,-0.061,1.129,60.000,20830.000,1.000
1.137,0.150,-3.492,-5.695,-3.248,-8.325,-14.027,-11.046,-0.161,1.001,0.092,2.289,-0.092,1.190,60.000,20831.000,1.000
-1.076,-0.986,-5.768,-7.952,-5.620,-8.659,-15.775,-12.470,-0.160,1.002,0.090,2.319,-0.061,1.190,60.000,20832.000,1.000
-3.961,-2.542,-8.842,-10.862,-7.705,-8.599,-16.607,-14.433,-0.160,1.002,0.089,2.167,-0.122,1.160,60.000,20833.000,1.000
-6.750,-4.005,-11.728,-13.395,-9.024,-8.020,-16.450,-16.146,-0.160,1.002,0.091,2.258,-0.153,1.099,60.000,20834.000,1.000
-8.765,-4.725,-13.229,-14.284,-9.311,-6.703,-15.277,-16.411,-0.159,1.000,0.091,2.106,-0.031,1.190,60.000,20835.000,1.000
-9.719,-4.514,-13.131,-13.380,-8.579,-4.804,-13.154,-14.949,-0.159,0.997,0.088,2.167,0.031,1.160,60.000,20836.000,1.000
-9.673,-3.570,-12.152,-11.638,-6.927,-2.634,-10.226,-12.506,-0.157,0.994,0.085,2.350,0.031,1.099,60.000,20837.000,1.000
-8.982,-2.145,-11.001,-9.936,-4.602,-0.246,-6.794,-9.831,-0.157,0.993,0.088,2.380,0.092,0.946,60.000,20838.000,1.000
-8.361,-0.713,-10.055,-8.493,-2.408,2.261,-3.590,-7.192,-0.155,0.994,0.086,2.441,0.031,0.854,60.000,20839.000,1.000
-8.572,-0.203,-9.850,-7.497,-1.671,4.117,-1.753,-4.995,-0.154,0.993,0.084,2.686,0.153,0.824,60.000,20840.000,1.000
-9.811,-1.554,-11.268,-7.673,-3.313,4.075,-2.121,-4.189,-0.152,0.992,0.082,2.869,0.427,0.763,60.000,20841.000,1.000
-11.526,-4.817,-14.764,-9.646,-6.937,1.567,-4.368,-5.476,-0.152,0.991,0.079,3.143,0.641,0.549,60.000,20842.000,1.000
-12.885,-8.790,-19.453,-12.774,-10.986,-2.405,-7.000,-8.144,-0.152,0.992,0.077,3.265,0.763,0.366,60.000,20843.000,1.000
-13.438,-11.826,-23.470,-15.280,-13.941,-5.950,-8.529,-10.328,-0.151,0.992,0.075,3.418,0.854,0.153,60.000,20844.000,1.000
-13.348,-13.130,-25.528,-15.919,-15.336,-7.948,-8.719,-10.758,-0.150,0.993,0.078,3.632,0.885,0.000,60.000,20845.000,1.000
-13.061,-13.131,-25.895,-15.177,-15.647,-8.705,-8.453,-9.918,-0.148,0.994,0.078,3.571,1.190,-0.061,60.000,20846.000,1.000
-12.863,-12.775,-25.758,-14.532,-15.531,-9.129,-8.594,-9.289,-0.150,0.998,0.079,3.723,1.404,-0.183,60.000,20847.000,1.000
-12.704,-12.651,-25.782,-14.651,-15.347,-9.638,-9.234,-9.656,-0.149,0.999,0.078,3.876,1.587,-0.336,60.000,20848.000,1.000
-12.311,-12.683,-25.476,-14.659,-15.114,-9.845,-9.838,-10.341,-0.148,1.000,0.075,3.845,1.984,-0.427,60.000,20849.000,1.000
-11.514,-12.535,-24.048,-13.386,-14.746,-9.223,-9.945,-10.216,-0.147,0.999,0.074,3.815,2.197,-0.549,60.000,20850.000,1.000
-10.557,-12.255,-21.746,-11.133,-14.372,-7.991,-9.738,-9.322,-0.148,0.998,0.073,3.845,2.319,-0.580,60.000,20851.000,1.000
-10.029,-12.316,-19.939,-9.653,-14.347,-7.058,-9.803,-8.967,-0.148,0.998,0.070,3.815,2.411,-0.671,60.000,20852.000,1.000
-10.423,-12.991,-19.725,-10.248,-14.914,-7.054,-10.371,-10.059,-0.150,0.998,0.071,3.845,2.563,-0.732,60.000,20853.000,1.000
-11.793,-14.015,-20.867,-12.459,-16.042,-7.788,-11.150,-12.007,-0.151,1.000,0.071,3.723,2.777,-0.732,60.000,20854.000,1.000
-13.727,-14.964,-22.274,-14.844,-17.556,-8.760,-11.863,-13.604,-0.152,1.002,0.071,3.784,2.930,-0.793,60.000,20855.000,1.000
-15.511,-15.699,-23.185,-16.544,-19.150,-9.817,-12.499,-14.388,-0.153,1.005,0.070,3.632,3.143,-0.916,60.000,20856.000,1.000
-16.451,-16.238,-23.590,-17.645,-20.316,-11.031,-12.906,-14.672,-0.154,1.004,0.070,3.510,3.174,-0.885,60.000,20857.000,1.000
-16.365,-16.477,-23.779,-18.378,-20.619,-12.196,-12.634,-14.622,-0.153,1.003,0.069,3.265,3.265,-1.007,60.000,20858.000,1.000
-15.888,-16.415,-23.906,-18.622,-20.235,-12.960,-11.551,-13.966,-0.155,1.002,0.068,3.265,3.418,-1.038,60.000,20859.000,1.000
-16.067,-16.471,-24.057,-18.302,-19.970,-13.494,-10.311,-12.694,-0.154,1.001,0.066,3.082,3.418,-0.977,60.000,20860.000,1.000
-17.299,-17.083,-24.352,-17.797,-20.381,-14.372,-9.644,-11.497,-0.156,1.000,0.067,3.021,3.479,-1.099,60.000,20861.000,1.000
-18.739,-17.960,-24.682,-17.559,-21.026,-15.566,-9.311,-11.116,-0.158,0.999,0.069,2.930,3.418,-1.190,60.000,20862.000,1.000
-18.931,-18.057,-24.465,-17.392,-20.908,-16.073,-8.274,-11.432,-0.161,0.999,0.070,2.960,3.540,-1.160,60.000,20863.000,1.000
-17.031,-16.361,-22.913,-16.372,-19.437,-14.760,-5.768,-11.430,-0.161,0.999,0.067,2.869,3.540,-1.190,60.000,20864.000,1.000
-13.383,-12.703,-19.767,-13.790,-16.745,-11.412,-1.903,-10.111,-0.160,0.999,0.067,2.808,3.571,-1.251,60.000,20865.000,1.000
-9.208,-8.112,-15.942,-10.262,-13.429,-7.084,2.501,-7.520,-0.162,1.000,0.069,2.747,3.571,-1.251,60.000,20866.000,1.000
-5.974,-4.426,-13.307,-7.653,-10.411,-3.594,6.192,-4.897,-0.164,1.001,0.069,2.594,3.510,-1.251,60.000,20867.000,1.000
-4.830,-3.255,-13.418,-7.572,-8.838,-2.522,7.752,-3.667,-0.163,1.002,0.070,2.533,3.418,-1.221,60.000,20868.000,1.000
-6.033,-4.878,-16.173,-9.819,-9.476,-4.120,6.415,-4.106,-0.167,1.003,0.070,2.411,3.479,-1.190,60.000,20869.000,1.000
-8.628,-7.998,-19.814,-12.489,-11.876,-6.918,3.055,-5.118,-0.170,1.002,0.070,2.289,3.357,-1.129,60.000,20870.000,1.000
-10.879,-10.690,-22.357,-13.678,-14.441,-8.814,-0.152,-5.422,-0.169,1.004,0.072,2.106,3.143,-1.068,60.000,20871.000,1.000
-11.275,-11.606,-22.873,-12.803,-15.509,-8.644,-1.320,-4.594,-0.170,1.006,0.071,2.014,2.960,-1.007,60.000,20872.000,1.000
-9.233,-10.359,-21.329,-10.225,-14.367,-6.562,-0.065,-2.827,-0.172,1.000,0.075,1.892,2.838,-1.038,60.000,20873.000,1.000
-5.167,-7.234,-17.792,-6.327,-11.420,-3.284,2.596,-0.236,-0.172,0.994,0.073,1.709,2.594,-1.007,60.000,20874.000,1.000
-0.263,-3.089,-12.575,-1.683,-7.765,0.353,5.141,2.912,-0.173,0.994,0.070,1.892,2.380,-0.946,60.000,20875.000,1.000
3.894,0.565,-7.040,2.227,-4.690,3.184,6.306,5.513,-0.174,1.000,0.073,1.740,2.197,-0.824,60.000,20876.000,1.000
6.011,2.142,-3.295,3.542,-3.165,3.986,5.531,6.035,-0.175,1.004,0.078,1.831,1.923,-0.641,60.000,20877.000,1.000
5.731,1.046,-2.586,1.677,-3.522,2.364,3.039,3.951,-0.176,1.008,0.079,1.617,1.617,-0.610,60.000,20878.000,1.000
3.762,-1.869,-4.218,-1.924,-5.453,-0.839,-0.530,0.362,-0.176,1.012,0.077,1.312,1.465,-0.519,60.000,20879.000,1.000
1.448,-4.916,-6.243,-4.966,-8.108,-4.063,-4.451,-2.968,-0.177,1.010,0.076,1.068,1.251,-0.488,60.000,20880.000,1.000
-0.025,-6.744,-7.214,-6.207,-10.386,-6.142,-8.086,-5.087,-0.177,1.011,0.076,0.580,0.946,-0.458,60.000,20881.000,1.000
-0.234,-7.038,-7.065,-6.057,-11.486,-6.927,-11.003,-6.310,-0.172,1.010,0.080,0.305,0.732,-0.244,60.000,20882.000,1.000
0.565,-6.158,-6.323,-5.410,-11.246,-6.746,-12.978,-7.302,-0.173,1.009,0.080,0.153,0.610,-0.122,60.000,20883.000,1.000
1.873,-4.484,-5.078,-4.462,-10.053,-5.736,-14.010,-8.102,-0.172,1.005,0.078,0.000,0.336,-0.092,60.000,20884.000,1.000
3.190,-2.336,-3.193,-3.015,-8.511,-4.053,-14.410,-8.397,-0.171,0.997,0.077,-0.244,0.122,0.031,60.000,20885.000,1.000
4.061,-0.283,-1.164,-1.536,-7.123,-2.316,-14.766,-8.463,-0.168,0.990,0.074,-0.275,0.061,0.122,60.000,20886.000,1.000
4.293,0.995,-0.028,-1.072,-6.129,-1.376,-15.611,-9.145,-0.168,0.983,0.071,-0.061,-0.092,0.244,60.000,20887.000,1.000
4.326,1.520,-0.057,-1.751,-5.339,-1.344,-16.807,-10.469,-0.167,0.978,0.072,0.244,-0.183,0.275,60.000,20888.000,1.000
4.993,2.243,-0.151,-2.113,-4.218,-1.182,-17.330,-10.967,-0.166,0.974,0.073,0.427,-0.336,0.397,60.000,20889.000,1.000
6.398,3.806,0.748,-0.873,-2.587,0.087,-16.267,-9.274,-0.165,0.978,0.074,1.007,-0.366,0.397,60.000,20890.000,1.000
7.427,5.423,2.098,1.127,-1.102,1.953,-13.995,-6.097,-0.163,0.980,0.073,1.038,-0.458,0.458,60.000,20891.000,1.000
6.784,5.608,2.340,1.617,-0.673,2.815,-11.972,-3.716,-0.162,0.979,0.076,1.160,-0.427,0.397,60.000,20892.000,1.000
4.214,3.824,0.762,-0.607,-1.602,1.785,-11.400,-3.541,-0.161,0.984,0.076,1.343,-0.458,0.488,60.000,20893.000,1.000
0.563,1.068,-1.714,-4.422,-3.428,-0.305,-12.287,-4.800,-0.156,0.987,0.079,1.495,-0.427,0.549,60.000,20894.000,1.000
-2.926,-1.152,-3.553,-7.577,-5.344,-1.838,-13.656,-5.671,-0.154,0.990,0.079,1.526,-0.366,0.580,60.000,20895.000,1.000
-5.252,-2.238,-4.109,-8.733,-6.663,-2.195,-14.418,-5.231,-0.154,0.990,0.078,1.495,-0.183,0.549,60.000,20896.000,1.000
-6.069,-2.841,-3.986,-8.217,-7.156,-2.326,-14.171,-4.067,-0.151,0.992,0.075,1.465,-0.153,0.671,60.000,20897.000,1.000
-5.673,-3.876,-4.004,-7.021,-7.080,-3.534,-13.388,-3.223,-0.152,0.993,0.078,1.404,0.031,0.610,60.000,20898.000,1.000
-4.491,-5.369,-3.985,-5.433,-6.750,-5.961,-12.771,-2.801,-0.151,0.994,0.078,1.373,0.031,0.549,60.000,20899.000,1.000
-2.693,-6.391,-2.876,-3.040,-6.049,-8.395,-12.467,-1.934,-0.150,0.996,0.082,1.221,0.214,0.580,60.000,20900.000,1.000
-0.430,-6.167,-0.157,-0.006,-4.616,-9.556,-12.188,-0.201,-0.151,0.998,0.080,1.129,0.275,0.671,60.000,20901.000,1.000
1.999,-4.780,3.478,2.599,-2.318,-9.153,-11.757,1.676,-0.154,1.000,0.081,1.068,0.427,0.549,60.000,20902.000,1.000
4.536,-2.561,7.195,4.183,0.709,-7.464,-11.041,3.000,-0.154,0.999,0.082,0.732,0.580,0.458,60.000,20903.000,1.000
7.418,0.535,11.067,5.548,4.201,-4.581,-9.746,4.154,-0.152,0.999,0.084,0.549,0.641,0.305,60.000,20904.000,1.000
10.531,4.372,15.405,7.720,7.630,-0.749,-7.821,5.809,-0.153,1.000,0.084,0.427,0.702,0.214,60.000,20905.000,1.000
13.048,7.939,19.535,10.320,10.205,2.979,-5.799,7.562,-0.153,1.001,0.084,0.305,0.824,0.061,60.000,20906.000,1.000
14.095,9.966,22.091,11.862,11.372,5.312,-4.377,8.202,-0.155,1.000,0.087,0.122,0.916,-0.092,60.000,20907.000,1.000
13.536,10.135,22.491,11.558,11.210,5.925,-3.784,7.293,-0.155,1.000,0.086,-0.183,1.099,-0.153,60.000,20908.000,1.000
11.857,9.188,21.504,10.132,10.157,5.619,-3.814,5.794,-0.156,0.997,0.086,-0.305,0.977,-0.244,60.000,20909.000,1.000
9.615,8.028,20.331,8.769,8.633,5.305,-4.174,4.903,-0.156,0.993,0.090,-0.458,1.099,-0.366,60.000,20910.000,1.000
7.287,7.073,19.518,7.849,7.112,5.206,-4.548,4.769,-0.156,0.991,0.089,-0.427,1.068,-0.458,60.000,20911.000,1.000
5.313,6.309,18.810,6.884,6.173,5.028,-4.573,4.629,-0.158,0.992,0.085,-0.671,1.160,-0.641,60.000,20912.000,1.000
3.976,5.706,17.892,5.515,6.174,4.711,-4.026,4.019,-0.160,0.990,0.088,-0.641,1.129,-0.702,60.000,20913.000,1.000
3.405,5.531,17.133,4.334,7.012,4.804,-3.001,3.501,-0.161,0.990,0.087,-0.671,1.251,-0.946,60.000,20914.000,1.000
3.494,5.920,17.130,4.252,8.121,5.676,-1.962,3.860,-0.165,0.989,0.088,-0.549,1.068,-1.068,60.000,20915.000,1.000
3.534,6.066,17.340,4.914,8.501,6.412,-1.730,4.641,-0.166,0.993,0.088,-0.610,0.977,-1.160,60.000,20916.000,1.000
2.510,4.631,16.100,4.665,7.267,5.346,-2.984,4.293,-0.166,0.994,0.091,-0.641,0.824,-1.282,60.000,20917.000,1.000
0.260,1.366,12.663,2.634,4.571,2.050,-5.355,2.193,-0.164,0.994,0.090,-0.610,0.916,-1.404,60.000,20918.000,1.000
-2.031,-2.184,8.609,0.190,1.759,-1.801,-7.325,-0.149,-0.165,0.994,0.089,-0.702,0.824,-1.495,60.000,20919.000,1.000
-2.706,-3.835,6.646,-0.315,0.476,-3.777,-7.313,-0.420,-0.165,0.996,0.089,-0.793,0.702,-1.495,60.000,20920.000,1.000
-0.926,-2.533,8.092,1.968,1.591,-2.731,-4.869,2.147,-0.166,0.994,0.090,-0.854,0.549,-1.495,60.000,20921.000,1.000
2.693,0.881,11.759,5.574,4.661,0.497,-0.897,6.055,-0.165,0.993,0.092,-0.885,0.641,-1.465,60.000,20922.000,1.000
6.423,4.492,15.215,8.272,8.152,4.063,3.045,9.049,-0.164,0.990,0.093,-0.885,0.519,-1.495,60.000,20923.000,1.000
8.441,6.732,16.820,8.924,10.264,6.496,5.560,9.936,-0.166,0.990,0.091,-1.099,0.549,-1.434,60.000,20924.000,1.000
7.940,7.156,16.487,7.811,10.036,7.316,5.972,8.899,-0.167,0.988,0.091,-0.885,0.580,-1.343,60.000,20925.000,1.000
5.612,6.248,14.973,5.769,7.992,6.853,4.568,6.628,-0.166,0.987,0.092,-0.885,0.519,-1.190,60.000,20926.000,1.000
3.140,4.881,13.039,3.558,5.742,5.872,2.388,3.747,-0.167,0.991,0.092,-0.763,0.488,-1.007,60.000,20927.000,1.000
2.118,3.998,11.406,1.980,4.789,5.351,0.720,1.046,-0.167,0.992,0.091,-0.580,0.488,-0.885,60.000,20928.000,1.000
3.112,4.301,10.862,1.899,5.580,6.117,0.581,-0.411,-0.167,0.996,0.092,-0.458,0.610,-0.671,60.000,20929.000,1.000
5.462,5.782,11.811,3.562,7.493,8.202,2.254,0.000,-0.168,0.998,0.094,-0.641,0.610,-0.366,60.000,20930.000,1.000
7.917,7.609,13.713,5.957,9.571,10.612,5.144,1.697,-0.169,1.001,0.094,-0.702,0.488,-0.275,60.000,20931.000,1.000
9.503,8.774,15.408,7.404,11.251,12.093,8.266,3.344,-0.167,1.000,0.092,-0.793,0.519,-0.061,60.000,20932.000,1.000
9.969,8.983,16.209,7.108,12.542,12.301,10.907,4.230,-0.167,1.002,0.093,-0.854,0.549,0.244,60.000,20933.000,1.000
9.672,8.844,16.530,5.978,13.679,12.052,12.885,4.940,-0.166,1.002,0.093,-0.977,0.549,0.397,60.000,20934.000,1.000
9.204,9.188,17.289,5.681,14.828,12.394,14.436,6.535,-0.165,1.001,0.094,-0.946,0.580,0.488,60.000,20935.000,1.000
9.073,10.347,18.820,6.938,16.120,13.679,16.047,9.251,-0.163,0.998,0.092,-1.038,0.610,0.641,60.000,20936.000,1.000
9.467,12.036,20.517,8.908,17.635,15.504,18.115,12.161,-0.164,0.999,0.092,-1.007,0.580,0.854,60.000,20937.000,1.000
9.910,13.506,21.349,10.105,18.990,17.055,20.369,13.959,-0.160,0.999,0.092,-1.160,0.793,0.854,60.000,20938.000,1.000
9.115,13.612,20.437,9.503,19.011,17.309,21.616,13.756,-0.161,0.999,0.094,-1.221,0.702,1.038,60.000,20939.000,1.000
5.722,11.194,17.298,6.782,16.385,15.331,20.418,11.196,-0.159,1.000,0.095,-1.343,0.732,1.160,60.000,20940.000,1.000
-0.399,5.938,12.028,2.113,10.969,10.856,16.286,6.355,-0.158,0.998,0.094,-1.495,0.702,1.373,60.000,20941.000,1.000
-7.758,-1.130,5.449,-3.831,4.242,4.681,10.142,-0.081,-0.157,0.994,0.093,-1.434,0.824,1.404,60.000,20942.000,1.000
-14.213,-8.103,-0.947,-9.656,-1.723,-1.601,3.640,-6.610,-0.156,0.991,0.095,-1.312,0.885,1.404,60.000,20943.000,1.000
-18.158,-13.090,-5.400,-13.461,-5.532,-6.306,-1.741,-11.272,-0.153,0.990,0.092,-1.312,1.007,1.495,60.000,20944.000,1.000
-18.882,-14.853,-6.628,-13.809,-6.756,-8.362,-5.020,-12.675,-0.151,0.985,0.094,-1.068,1.129,1.526,60.000,20945.000,1.000
-16.438,-13.165,-4.613,-10.848,-5.509,-7.628,-5.597,-10.888,-0.149,0.986,0.089,-0.885,1.251,1.587,60.000,20946.000,1.000
-11.639,-8.985,-0.730,-6.408,-2.354,-4.904,-3.441,-7.403,-0.148,0.986,0.092,-0.702,1.465,1.556,60.000,20947.000,1.000
-5.954,-4.048,3.193,-2.630,1.483,-1.590,0.372,-4.141,-0.146,0.987,0.094,-0.641,1.587,1.556,60.000,20948.000,1.000
-0.900,0.140,6.179,-0.375,4.453,1.052,3.840,-2.245,-0.144,0.988,0.096,-0.519,1.709,1.434,60.000,20949.000,1.000
2.613,2.929,8.316,0.792,5.564,2.420,5.261,-1.784,-0.145,0.985,0.097,-0.366,1.953,1.373,60.000,20950.000,1.000
4.381,4.241,9.786,1.234,4.858,2.398,4.211,-2.571,-0.148,0.983,0.095,-0.305,2.167,1.282,60.000,20951.000,1.000
4.675,4.211,10.303,0.638,3.153,1.126,1.467,-4.662,-0.150,0.986,0.093,-0.366,2.319,1.190,60.000,20952.000,1.000
4.111,3.391,9.778,-0.970,1.471,-0.742,-1.551,-7.630,-0.150,0.991,0.096,-0.031,2.350,0.977,60.000,20953.000,1.000
3.543,2.880,9.046,-2.335,0.656,-1.924,-3.274,-9.902,-0.151,0.995,0.100,0.122,2.350,0.702,60.000,20954.000,1.000
3.742,3.720,9.339,-1.829,1.236,-1.174,-2.534,-9.649,-0.153,1.001,0.103,0.061,2.319,0.427,60.000,20955.000,1.000
4.873,5.919,10.852,0.738,3.214,1.628,0.702,-6.559,-0.154,1.002,0.102,-0.183,2.319,0.153,60.000,20956.000,1.000
6.141,8.104,12.121,3.559,5.740,4.983,4.929,-2.440,-0.153,1.001,0.101,-0.244,2.319,-0.061,60.000,20957.000,1.000
6.251,8.505,11.295,4.464,7.328,6.749,7.856,0.332,-0.153,1.000,0.097,-0.397,2.167,-0.275,60.000,20958.000,1.000
4.482,6.538,7.973,2.928,6.836,5.910,7.944,0.811,-0.157,1.000,0.094,-0.549,2.197,-0.427,60.000,20959.000,1.000
1.227,3.179,3.414,0.096,4.313,3.234,5.378,-0.303,-0.154,1.001,0.092,-0.610,2.197,-0.610,60.000,20960.000,1.000
-2.450,-0.151,-0.915,-2.800,0.966,0.335,1.800,-1.957,-0.154,0.999,0.096,-0.580,2.197,-0.702,60.000,20961.000,1.000
-5.543,-2.613,-4.411,-5.353,-1.635,-1.529,-0.766,-3.560,-0.154,0.997,0.097,-0.793,2.106,-0.854,60.000,20962.000,1.000
-7.498,-3.971,-7.037,-7.417,-2.554,-1.917,-1.089,-4.658,-0.157,0.994,0.096,-0.702,1.892,-1.007,60.000,20963.000,1.000
-8.305,-4.240,-8.646,-8.425,-1.969,-1.047,0.709,-4.578,-0.157,0.991,0.095,-0.549,1.892,-1.099,60.000,20964.000,1.000
-8.406,-3.693,-9.102,-7.868,-0.812,0.450,3.533,-2.926,-0.156,0.989,0.095,-0.366,1.862,-1.343,60.000,20965.000,1.000
-8.437,-3.029,-8.994,-6.335,0.000,1.713,6.160,-0.381,-0.160,0.986,0.095,-0.214,1.709,-1.312,60.000,20966.000,1.000
-8.756,-2.968,-9.485,-5.359,0.136,2.114,7.971,1.583,-0.161,0.985,0.098,0.031,1.465,-1.465,60.000,20967.000,1.000
-9.161,-3.537,-11.065,-5.848,-0.145,1.824,9.125,2.037,-0.160,0.984,0.100,0.336,1.312,-1.526,60.000,20968.000,1.000
-9.143,-4.019,-12.827,-7.110,-0.483,1.643,10.054,1.341,-0.161,0.983,0.101,0.580,1.282,-1.678,60.000,20969.000,1.000
-8.336,-3.660,-13.291,-7.746,-0.706,2.232,10.877,0.448,-0.163,0.987,0.102,0.793,1.038,-1.678,60.000,20970.000,1.000
-6.688,-2.203,-11.777,-7.188,-0.601,3.648,11.405,-0.177,-0.162,0.989,0.101,0.916,0.916,-1.831,60.000,20971.000,1.000
-4.430,0.059,-8.914,-6.016,0.142,5.417,11.472,-0.745,-0.161,0.988,0.098,1.007,0.763,-1.862,60.000,20972.000,1.000
-2.078,2.432,-5.978,-4.958,1.460,6.822,11.150,-1.449,-0.163,0.989,0.096,1.129,0.580,-1.892,60.000,20973.000,1.000
-0.307,4.125,-3.825,-3.974,2.725,7.357,10.799,-1.843,-0.163,0.990,0.097,1.404,0.488,-1.953,60.000,20974.000,1.000
0.374,4.627,-2.604,-2.668,3.238,6.981,10.800,-1.225,-0.166,0.991,0.097,1.587,0.305,-1.984,60.000,20975.000,1.000
-0.108,3.808,-2.368,-1.353,2.741,5.826,11.082,0.298,-0.166,0.990,0.094,1.556,0.244,-2.014,60.000,20976.000,1.000
-1.209,1.978,-3.277,-0.931,1.574,4.094,11.261,1.772,-0.166,0.988,0.091,1.709,0.061,-1.984,60.000,20977.000,1.000
-1.938,0.040,-4.894,-1.515,0.505,2.479,11.253,2.666,-0.168,0.990,0.091,1.831,-0.122,-1.923,60.000,20978.000,1.000
-1.592,-0.918,-5.996,-1.912,0.139,1.923,11.202,3.493,-0.167,0.991,0.089,2.075,-0.305,-1.953,60.000,20979.000,1.000
-0.388,-0.531,-5.618,-0.924,0.418,2.559,10.929,4.809,-0.167,0.995,0.089,2.350,-0.519,-1.892,60.000,20980.000,1.000
0.851,0.533,-4.057,1.275,0.864,3.384,10.022,6.168,-0.168,0.996,0.091,2.472,-0.488,-1.831,60.000,20981.000,1.000
1.459,1.209,-2.586,3.396,1.137,3.179,8.429,6.524,-0.169,1.000,0.091,2.716,-0.671,-1.801,60.000,20982.000,1.000
1.352,1.004,-2.140,4.543,1.224,1.687,6.719,5.564,-0.168,1.001,0.091,2.747,-0.854,-1.709,60.000,20983.000,1.000
1.150,0.597,-2.222,5.317,1.451,0.090,5.950,4.473,-0.167,0.999,0.092,2.655,-1.007,-1.434,60.000,20984.000,1.000
1.945,1.374,-1.337,7.156,2.427,0.222,7.168,5.041,-0.164,0.995,0.090,2.960,-1.099,-1.312,60.000,20985.000,1.000
4.510,4.084,1.355,10.550,4.580,2.911,10.561,7.863,-0.166,0.996,0.087,3.143,-1.251,-1.129,60.000,20986.000,1.000
8.576,8.060,5.138,14.359,7.660,7.194,15.101,11.717,-0.166,0.998,0.088,3.326,-1.312,-1.038,60.000,20987.000,1.000
12.978,11.949,8.669,17.198,10.876,11.360,19.305,14.969,-0.167,1.001,0.089,3.387,-1.404,-0.854,60.000,20988.000,1.000
16.510,14.896,11.403,18.960,13.458,14.428,22.349,17.107,-0.167,1.005,0.092,3.601,-1.434,-0.732,60.000,20989.000,1.000
18.645,16.856,13.723,20.501,15.084,16.365,24.347,18.606,-0.166,1.006,0.092,3.662,-1.465,-0.610,60.000,20990.000,1.000
19.651,18.125,15.961,22.197,15.971,17.431,25.832,19.770,-0.164,1.007,0.092,3.571,-1.465,-0.397,60.000,20991.000,1.000
20.162,18.919,17.819,23.443,16.636,17.833,27.262,20.366,-0.163,1.005,0.092,3.479,-1.465,-0.214,60.000,20992.000,1.000
20.647,19.353,18.888,23.665,17.411,17.824,28.803,20.301,-0.163,1.002,0.089,3.418,-1.404,-0.183,60.000,20993.000,1.000
21.254,19.614,19.437,23.305,18.188,17.779,30.294,20.089,-0.162,0.999,0.087,3.265,-1.343,-0.214,60.000,20994.000,1.000
22.011,19.992,20.243,23.417,18.730,18.044,31.446,20.360,-0.160,0.997,0.084,3.357,-1.221,-0.122,60.000,20995.000,1.000
22.928,20.577,21.570,24.330,19.070,18.664,32.088,21.024,-0.158,0.993,0.084,3.418,-1.129,-0.122,60.000,20996.000,1.000
23.914,21.138,22.756,25.233,19.490,19.409,32.291,21.301,-0.157,0.995,0.085,3.510,-0.946,-0.092,60.000,20997.000,1.000
24.764,21.517,23.122,25.354,20.258,20.280,32.423,20.799,-0.158,0.997,0.086,3.662,-0.916,0.031,60.000,20998.000,1.000
25.108,21.771,22.770,24.916,21.265,21.611,32.876,20.082,-0.157,0.997,0.083,3.662,-0.824,0.092,60.000,20999.000,1.000
24.328,21.670,22.033,24.442,21.813,23.191,33.449,19.765,-0.156,0.998,0.087,3.601,-0.702,0.092,60.000,21000.000,1.000
21.901,20.520,20.659,23.659,21.077,23.743,33.307,19.486,-0.156,0.998,0.086,3.601,-0.519,0.092,60.000,21001.000,1.000
18.082,17.955,18.167,21.862,18.982,22.014,31.913,18.416,-0.153,0.998,0.085,3.540,-0.397,0.031,60.000,21002.000,1.000
13.993,14.677,14.871,19.199,16.405,18.308,29.680,16.587,-0.152,0.996,0.085,3.540,-0.275,0.031,60.000,21003.000,1.000
10.763,11.983,11.939,16.898,14.295,14.337,27.404,15.064,-0.152,0.995,0.085,3.448,-0.183,0.000,60.000,21004.000,1.000
8.757,10.536,10.336,15.992,12.815,11.519,25.316,14.634,-0.153,0.997,0.085,3.540,0.031,0.092,60.000,21005.000,1.000
7.650,9.807,9.866,16.105,11.451,9.789,22.945,14.720,-0.152,0.996,0.082,3.479,0.366,-0.061,60.000,21006.000,1.000
6.928,8.718,9.386,15.737,9.722,8.072,19.737,13.900,-0.153,0.996,0.081,3.357,0.488,-0.153,60.000,21007.000,1.000
6.301,6.841,8.060,13.957,7.669,5.738,15.665,11.553,-0.153,0.997,0.081,3.265,0.763,-0.061,60.000,21008.000,1.000
5.803,4.914,6.302,11.573,5.816,3.435,11.422,8.751,-0.152,0.998,0.083,3.296,0.885,-0.153,60.000,21009.000,1.000
5.484,3.999,5.123,10.118,4.644,2.334,8.071,7.140,-0.154,0.998,0.083,3.235,1.068,-0.092,60.000,21010.000,1.000
5.091,4.237,4.675,9.913,4.149,2.737,6.396,7.133,-0.153,0.997,0.082,3.235,1.099,-0.183,60.000,21011.000,1.000
4.332,4.781,4.092,9.875,4.014,3.861,6.612,7.748,-0.152,0.997,0.083,3.113,1.221,-0.244,60.000,21012.000,1.000
3.378,4.894,2.819,9.264,4.091,4.959,8.535,8.158,-0.154,0.997,0.081,2.960,1.373,-0.214,60.000,21013.000,1.000
2.711,4.630,1.408,8.687,4.377,6.014,11.544,8.579,-0.152,0.998,0.081,3.021,1.526,-0.397,60.000,21014.000,1.000
2.387,4.208,0.560,8.889,4.542,7.070,14.294,9.263,-0.153,0.994,0.079,2.960,1.648,-0.397,60.000,21015.000,1.000
1.748,3.193,-0.175,9.142,3.858,7.398,15.035,9.296,-0.152,0.995,0.080,2.960,1.953,-0.397,60.000,21016.000,1.000
0.040,0.901,-2.075,7.668,1.780,5.952,12.694,7.192,-0.154,0.998,0.082,2.930,2.075,-0.427,60.000,21017.000,1.000
-2.823,-2.583,-5.689,3.673,-1.544,2.533,7.663,2.668,-0.154,0.996,0.079,3.082,2.167,-0.397,60.000,21018.000,1.000
-6.191,-6.265,-10.002,-1.553,-5.427,-1.994,1.413,-2.637,-0.156,0.996,0.079,3.082,2.289,-0.458,60.000,21019.000,1.000
-9.079,-9.036,-13.203,-5.685,-9.006,-6.503,-4.459,-6.402,-0.157,0.997,0.080,3.082,2.289,-0.397,60.000,21020.000,1.000
-10.636,-10.432,-14.207,-7.324,-11.456,-10.258,-8.811,-7.443,-0.157,0.998,0.078,3.143,2.441,-0.366,60.000,21021.000,1.000
-10.551,-10.811,-13.437,-6.859,-12.318,-13.055,-11.174,-6.360,-0.158,0.999,0.077,3.052,2.350,-0.427,60.000,21022.000,1.000
-9.249,-10.852,-12.103,-5.535,-11.830,-14.991,-11.832,-4.557,-0.160,0.997,0.077,2.991,2.441,-0.397,60.000,21023.000,1.000
-7.673,-10.876,-10.934,-4.091,-10.805,-16.115,-11.713,-2.956,-0.161,0.998,0.076,3.052,2.502,-0.244,60.000,21024.000,1.000
-6.674,-10.723,-9.851,-2.625,-10.051,-16.390,-12.022,-1.837,-0.161,0.998,0.077,2.991,2.441,-0.305,60.000,21025.000,1.000
-6.466,-10.174,-8.670,-1.404,-9.799,-15.965,-13.559,-1.484,-0.160,0.998,0.078,2.960,2.563,-0.153,60.000,21026.000,1.000
-6.571,-9.237,-7.601,-1.034,-9.651,-15.189,-16.096,-2.245,-0.162,0.996,0.077,2.991,2.472,-0.183,60.000,21027.000,1.000
-6.274,-7.982,-6.857,-1.594,-9.057,-14.166,-18.488,-3.750,-0.163,0.996,0.077,2.899,2.502,-0.153,60.000,21028.000,1.000
-5.221,-6.409,-6.179,-2.160,-7.859,-12.521,-19.541,-4.653,-0.163,0.996,0.079,2.930,2.350,-0.061,60.000,21029.000,1.000
-3.726,-4.685,-5.217,-1.754,-6.386,-9.917,-18.858,-3.752,-0.164,0.996,0.080,2.838,2.289,-0.031,60.000,21030.000,1.000
-2.540,-3.356,-4.228,-0.569,-5.078,-6.742,-17.023,-1.250,-0.162,1.000,0.076,2.838,2.197,0.061,60.000,21031.000,1.000
-2.293,-3.068,-4.035,0.164,-4.139,-4.019,-15.160,1.368,-0.165,1.000,0.076,2.777,1.953,0.092,60.000,21032.000,1.000
-3.109,-3.999,-5.091,-0.408,-3.613,-2.582,-14.292,2.716,-0.163,1.000,0.075,2.716,1.862,0.092,60.000,21033.000,1.000
-4.530,-5.506,-6.683,-1.691,-3.548,-2.410,-14.803,2.635,-0.164,1.000,0.074,2.533,1.801,0.183,60.000,21034.000,1.000
-5.734,-6.485,-7.355,-2.247,-3.861,-2.796,-16.268,1.969,-0.162,1.000,0.076,2.350,1.740,0.122,60.000,21035.000,1.000
-6.031,-6.262,-6.333,-1.465,-4.228,-3.079,-17.759,1.405,-0.163,1.001,0.075,2.289,1.648,0.183,60.000,21036.000,1.000
-5.279,-5.079,-4.282,-0.195,-4.305,-3.118,-18.448,0.856,-0.161,1.003,0.075,2.197,1.434,0.214,60.000,21037.000,1.000
-3.879,-3.701,-2.466,0.474,-4.027,-3.083,-18.070,0.075,-0.161,1.005,0.076,2.106,1.312,0.275,60.000,21038.000,1.000
-2.468,-2.759,-1.472,0.541,-3.682,-3.092,-16.970,-0.627,-0.159,1.004,0.073,2.014,1.312,0.519,60.000,21039.000,1.000
-1.603,-2.562,-1.109,0.710,-3.698,-3.273,-15.796,-0.755,-0.159,1.002,0.074,1.770,1.160,0.641,60.000,21040.000,1.000
-1.645,-3.316,-1.321,1.029,-4.375,-4.030,-15.148,-0.581,-0.159,1.001,0.074,1.587,1.160,0.854,60.000,21041.000,1.000
-2.829,-5.271,-2.692,0.464,-5.873,-5.998,-15.452,-1.234,-0.158,1.000,0.076,1.465,1.129,0.885,60.000,21042.000,1.000
-5.168,-8.364,-5.684,-1.882,-8.212,-9.359,-16.829,-3.542,-0.160,0.996,0.072,1.404,1.007,0.885,60.000,21043.000,1.000
-8.075,-11.644,-9.484,-5.349,-10.973,-13.076,-18.813,-6.849,-0.158,0.996,0.072,1.343,0.977,1.038,60.000,21044.000,1.000
-10.413,-13.564,-12.234,-8.092,-13.185,-15.323,-20.393,-9.424,-0.158,0.995,0.074,1.282,0.946,1.038,60.000,21045.000,1.000
-11.311,-13.268,-12.752,-9.022,-13.958,-15.098,-20.693,-10.225,-0.156,0.996,0.074,1.190,0.824,0.946,60.000,21046.000,1.000
-10.885,-11.379,-11.598,-8.829,-13.254,-13.170,-19.713,-9.848,-0.157,0.994,0.074,1.129,0.763,0.854,60.000,21047.000,1.000
-9.953,-9.294,-10.180,-8.814,-11.860,-11.147,-18.224,-9.490,-0.156,0.992,0.075,1.221,0.732,0.763,60.000,21048.000,1.000
-9.211,-7.881,-9.228,-9.236,-10.661,-9.865,-16.954,-9.439,-0.157,0.991,0.075,1.251,0.702,0.793,60.000,21049.000,1.000
-8.998,-7.235,-8.706,-9.513,-10.183,-9.136,-16.209,-9.223,-0.157,0.990,0.074,1.251,0.610,0.641,60.000,21050.000,1.000
-9.566,-7.314,-8.831,-9.701,-10.596,-8.745,-16.136,-8.903,-0.156,0.990,0.072,1.251,0.458,0.519,60.000,21051.000,1.000
-10.981,-8.101,-10.202,-10.709,-11.682,-8.862,-16.752,-9.240,-0.157,0.990,0.072,1.160,0.488,0.458,60.000,21052.000,1.000
-12.749,-9.141,-12.733,-12.873,-12.793,-9.363,-17.579,-10.451,-0.155,0.990,0.074,1.221,0.366,0.366,60.000,21053.000,1.000
-13.910,-9.454,-15.028,-14.984,-13.128,-9.388,-17.629,-11.441,-0.155,0.992,0.075,1.160,0.336,0.244,60.000,21054.000,1.000
-13.586,-8.185,-15.292,-15.213,-12.104,-7.991,-15.989,-10.703,-0.154,0.994,0.074,1.221,0.244,0.153,60.000,21055.000,1.000
-11.594,-5.469,-13.025,-13.013,-9.694,-5.215,-12.554,-7.960,-0.154,0.995,0.072,1.190,0.214,0.000,60.000,21056.000,1.000
-8.699,-2.592,-9.646,-9.809,-6.614,-2.350,-8.328,-4.637,-0.153,0.996,0.074,0.946,0.092,-0.031,60.000,21057.000,1.000
-6.175,-1.066,-7.211,-7.553,-4.045,-0.854,-4.885,-2.488,-0.153,0.996,0.077,0.854,0.153,-0.153,60.000,21058.000,1.000
-4.927,-1.366,-6.582,-6.850,-2.871,-1.000,-3.288,-1.928,-0.150,0.998,0.076,0.793,0.122,-0.275,60.000,21059.000,1.000
-5.012,-2.758,-7.165,-6.967,-3.174,-1.946,-3.585,-2.158,-0.150,0.998,0.076,0.671,0.092,-0.244,60.000,21060.000,1.000
-6.011,-4.397,-8.276,-7.446,-4.537,-3.167,-5.395,-2.736,-0.150,0.999,0.076,0.610,0.214,-0.244,60.000,21061.000,1.000
-7.598,-6.197,-10.070,-8.847,-6.550,-5.119,-8.446,-4.214,-0.151,0.997,0.077,0.458,0.305,-0.427,60.000,21062.000,1.000
-9.569,-8.376,-12.811,-11.556,-8.857,-8.163,-12.235,-6.921,-0.150,0.998,0.076,0.366,0.275,-0.458,60.000,21063.000,1.000
-11.496,-10.526,-15.765,-14.515,-10.921,-11.535,-15.696,-9.750,-0.151,0.998,0.073,0.214,0.397,-0.549,60.000,21064.000,1.000
-12.709,-11.701,-17.529,-15.906,-12.088,-13.923,-17.684,-10.907,-0.151,0.997,0.078,0.275,0.305,-0.549,60.000,21065.000,1.000
-12.815,-11.480,-17.538,-15.089,-12.003,-14.793,-17.780,-9.807,-0.149,0.996,0.077,0.214,0.336,-0.549,60.000,21066.000,1.000
-12.091,-10.494,-16.682,-13.236,-10.878,-14.729,-16.514,-7.609,-0.151,0.997,0.078,0.244,0.366,-0.519,60.000,21067.000,1.000
-11.135,-9.609,-16.060,-11.784,-9.226,-14.451,-14.730,-5.703,-0.152,0.996,0.075,0.214,0.427,-0.458,60.000,21068.000,1.000
-10.210,-8.883,-15.527,-10.774,-7.410,-13.839,-12.801,-4.225,-0.152,0.996,0.077,0.153,0.519,-0.427,60.000,21069.000,1.000
-9.099,-7.739,-14.031,-9.238,-5.544,-12.321,-10.672,-2.503,-0.155,0.995,0.077,0.153,0.549,-0.458,60.000,21070.000,1.000
-7.522,-6.013,-11.211,-6.905,-3.742,-10.076,-8.510,-0.546,-0.155,0.995,0.077,0.214,0.458,-0.488,60.000,21071.000,1.000
-5.547,-4.382,-8.129,-4.861,-2.323,-8.303,-6.983,0.551,-0.154,0.995,0.078,0.183,0.580,-0.519,60.000,21072.000,1.000
-3.503,-3.630,-6.189,-4.287,-1.684,-8.075,-6.719,-0.142,-0.156,0.993,0.080,0.031,0.519,-0.641,60.000,21073.000,1.000
-1.606,-3.731,-5.676,-4.982,-1.959,-9.211,-7.615,-2.134,-0.156,0.995,0.081,0.153,0.397,-0.702,60.000,21074.000,1.000
0.127,-3.934,-5.753,-5.665,-2.818,-10.556,-8.871,-3.930,-0.156,0.994,0.083,0.244,0.366,-0.763,60.000,21075.000,1.000
1.637,-3.632,-5.694,-5.556,-3.628,-11.140,-9.657,-4.623,-0.156,0.993,0.084,0.153,0.275,-0.763,60.000,21076.000,1.000
2.747,-2.807,-5.587,-5.067,-3.817,-10.703,-9.609,-4.602,-0.156,0.993,0.082,0.183,0.244,-0.763,60.000,21077.000,1.000
3.353,-1.657,-5.731,-4.821,-3.178,-9.238,-8.798,-4.590,-0.153,0.995,0.083,0.214,0.305,-0.793,60.000,21078.000,1.000
3.517,-0.179,-5.870,-4.643,-1.937,-6.602,-7.447,-4.555,-0.155,0.996,0.084,0.244,0.275,-0.885,60.000,21079.000,1.000
3.416,1.687,-5.425,-3.944,-0.526,-2.884,-5.762,-3.988,-0.155,0.996,0.086,0.183,0.305,-0.946,60.000,21080.000,1.000
3.418,3.790,-4.165,-2.683,0.844,1.191,-3.875,-2.886,-0.156,0.995,0.083,0.305,0.366,-0.916,60.000,21081.000,1.000
4.074,5.815,-2.345,-1.428,2.371,4.626,-1.814,-1.850,-0.156,0.994,0.083,0.275,0.427,-1.038,60.000,21082.000,1.000
5.631,7.504,-0.286,-0.554,4.311,6.899,0.432,-1.201,-0.155,0.995,0.082,0.153,0.427,-1.068,60.000,21083.000,1.000
