EEG 1,EEG 2,EEG 3,EEG 4,EEG 5,EEG 6,EEG 7,EEG 8,Accelerometer X,Accelerometer Y,Accelerometer Z,Gyroscope X,Gyroscope Y,Gyroscope Z,Battery Level,Counter,Validation Indicator
-0.716,8.037,2.242,2.597,5.561,5.227,2.126,2.841,-0.039,1.003,-0.077,0.702,3.235,-0.458,80.000,8193.000,1.000
-0.664,7.966,1.577,3.200,5.738,6.116,2.929,3.412,-0.041,1.000,-0.077,0.702,3.235,-0.519,80.000,8194.000,1.000
-1.075,6.765,0.715,2.938,5.877,6.378,3.024,2.795,-0.040,1.000,-0.079,0.702,3.510,-0.580,80.000,8195.000,1.000
-1.462,4.881,0.353,2.045,6.577,6.426,2.986,1.221,-0.041,0.999,-0.080,0.854,3.448,-0.488,80.000,8196.000,1.000
-1.405,3.769,0.666,1.341,7.695,6.732,3.769,0.108,-0.039,0.997,-0.079,0.854,3.479,-0.519,80.000,8197.000,1.000
-0.931,4.012,1.142,1.269,8.454,7.065,5.468,0.343,-0.039,0.996,-0.077,0.885,3.571,-0.580,80.000,8198.000,1.000
-0.263,4.498,1.223,1.471,8.391,6.797,7.249,1.405,-0.043,0.995,-0.078,0.977,3.540,-0.336,80.000,8199.000,1.000
0.538,3.825,0.912,1.361,7.889,5.877,8.482,2.328,-0.043,0.993,-0.073,1.160,3.479,-0.366,80.000,8200.000,1.000
1.469,2.085,0.565,0.878,7.582,5.083,9.464,3.010,-0.047,0.995,-0.076,1.251,3.510,-0.488,80.000,8201.000,1.000
2.286,0.720,0.296,0.495,7.559,5.191,10.875,4.159,-0.047,0.996,-0.078,1.343,3.357,-0.519,80.000,8202.000,1.000
2.526,0.680,-0.147,0.562,7.418,6.144,12.847,6.097,-0.048,0.997,-0.077,1.404,3.418,-0.610,80.000,8203.000,1.000
1.965,1.325,-0.885,0.894,7.018,7.194,14.857,8.147,-0.052,0.999,-0.076,1.434,3.326,-0.671,80.000,8204.000,1.000
0.919,1.415,-1.591,1.087,6.715,7.708,16.356,9.437,-0.050,1.000,-0.077,1.465,3.113,-0.793,80.000,8205.000,1.000
-0.050,0.727,-1.888,1.025,6.690,7.532,17.124,9.911,-0.052,1.003,-0.076,1.434,2.930,-0.946,80.000,8206.000,1.000
-0.622,0.232,-1.857,0.910,6.449,6.706,17.091,10.216,-0.052,1.005,-0.075,1.556,2.869,-1.038,80.000,8207.000,1.000
-0.766,0.772,-1.828,0.889,5.465,5.300,16.176,10.715,-0.051,1.007,-0.075,1.587,2.808,-0.977,80.000,8208.000,1.000
-0.430,2.003,-1.788,0.809,4.047,3.623,14.445,10.981,-0.051,1.009,-0.076,1.495,2.716,-0.885,80.000,8209.000,1.000
0.545,2.916,-1.299,0.443,3.124,2.327,12.294,10.387,-0.050,1.011,-0.074,1.434,2.655,-0.854,80.000,8210.000,1.000
2.163,3.184,-0.094,-0.100,3.135,2.016,10.260,8.973,-0.049,1.011,-0.074,1.312,2.502,-0.763,80.000,8211.000,1.000
3.981,3.465,1.461,-0.413,3.472,2.672,8.499,7.378,-0.050,1.011,-0.071,1.251,2.380,-0.763,80.000,8212.000,1.000
5.294,4.322,2.695,-0.293,3.205,3.638,6.588,5.918,-0.048,1.011,-0.072,1.099,2.258,-0.610,80.000,8213.000,1.000
5.793,5.330,3.329,-0.005,2.161,4.244,3.980,4.124,-0.046,1.012,-0.074,1.007,2.197,-0.458,80.000,8214.000,1.000
5.801,5.577,3.564,0.008,0.904,4.282,0.549,1.381,-0.044,1.011,-0.076,0.916,2.228,-0.366,80.000,8215.000,1.000
5.715,4.841,3.489,-0.469,-0.239,3.905,-3.351,-2.202,-0.046,1.011,-0.078,0.793,2.289,-0.153,80.000,8216.000,1.000
5.479,3.854,2.730,-1.335,-1.631,3.296,-7.216,-5.783,-0.046,1.010,-0.077,0.824,2.350,-0.061,80.000,8217.000,1.000
4.782,3.206,0.877,-2.447,-3.689,2.492,-10.717,-8.621,-0.045,1.010,-0.075,0.641,2.350,0.092,80.000,8218.000,1.000
3.647,2.485,-1.785,-3.775,-6.005,1.579,-13.567,-10.620,-0.042,1.009,-0.074,0.580,2.319,0.214,80.000,8219.000,1.000
2.646,1.044,-4.111,-5.112,-7.392,1.019,-15.144,-11.866,-0.040,1.008,-0.075,0.519,2.350,0.366,80.000,8220.000,1.000
2.380,-0.746,-4.915,-5.846,-6.981,1.390,-14.722,-11.990,-0.042,1.005,-0.075,0.641,2.319,0.458,80.000,8221.000,1.000
2.846,-1.671,-3.965,-5.339,-5.130,2.628,-12.263,-10.425,-0.042,1.003,-0.075,0.580,2.411,0.458,80.000,8222.000,1.000
3.474,-1.188,-2.093,-3.655,-3.037,3.824,-8.729,-7.314,-0.043,1.001,-0.073,0.549,2.502,0.580,80.000,8223.000,1.000
3.706,-0.286,-0.411,-1.789,-1.590,3.976,-5.479,-3.869,-0.042,0.999,-0.074,0.549,2.502,0.580,80.000,8224.000,1.000
3.443,-0.374,0.488,-0.914,-0.789,2.921,-3.270,-1.449,-0.044,0.999,-0.073,0.519,2.472,0.519,80.000,8225.000,1.000
2.984,-1.530,0.643,-1.339,-0.204,1.500,-1.806,-0.281,-0.044,0.998,-0.074,0.610,2.350,0.458,80.000,8226.000,1.000
2.577,-2.466,0.200,-2.397,0.265,0.745,-0.313,0.517,-0.044,0.996,-0.073,0.671,2.350,0.458,80.000,8227.000,1.000
2.172,-2.234,-0.863,-3.261,0.371,0.962,1.507,1.667,-0.044,0.994,-0.076,0.732,2.380,0.305,80.000,8228.000,1.000
1.675,-1.362,-2.335,-3.583,0.135,1.689,3.263,2.926,-0.043,0.994,-0.074,0.885,2.380,0.275,80.000,8229.000,1.000
1.277,-0.955,-3.410,-3.312,0.137,2.426,4.552,3.746,-0.043,0.994,-0.075,0.946,2.411,0.214,80.000,8230.000,1.000
1.409,-1.032,-3.056,-2.201,0.995,3.160,5.584,4.375,-0.043,0.992,-0.072,1.068,2.289,0.153,80.000,8231.000,1.000
2.370,-0.389,-0.838,0.117,2.696,4.048,6.901,5.759,-0.041,0.991,-0.076,1.282,2.411,0.000,80.000,8232.000,1.000
4.114,1.859,2.777,3.540,4.732,4.967,8.677,8.325,-0.041,0.993,-0.075,1.465,2.441,-0.031,80.000,8233.000,1.000
6.422,5.113,6.885,7.166,6.767,5.603,10.468,11.187,-0.041,0.993,-0.073,1.648,2.472,-0.061,80.000,8234.000,1.000
9.047,7.921,10.623,9.735,8.700,5.730,11.497,12.758,-0.039,0.994,-0.074,1.770,2.533,-0.122,80.000,8235.000,1.000
11.633,9.570,13.276,10.561,10.183,5.403,11.227,12.185,-0.039,0.993,-0.076,1.862,2.533,-0.183,80.000,8236.000,1.000
13.659,10.664,14.376,10.005,10.552,4.998,9.759,10.020,-0.039,0.996,-0.076,2.045,2.563,-0.275,80.000,8237.000,1.000
14.648,11.979,13.931,8.907,9.425,4.903,7.596,7.393,-0.040,1.000,-0.075,2.045,2.747,-0.366,80.000,8238.000,1.000
14.498,13.315,12.567,7.756,7.328,5.302,5.277,4.927,-0.041,1.000,-0.075,2.075,2.777,-0.397,80.000,8239.000,1.000
13.572,13.969,11.298,6.705,5.617,6.450,3.480,2.824,-0.041,1.002,-0.076,2.136,2.869,-0.427,80.000,8240.000,1.000
12.365,13.943,10.850,6.042,5.418,8.708,3.002,1.573,-0.044,1.005,-0.078,2.014,2.960,-0.305,80.000,8241.000,1.000
10.973,13.865,10.949,6.051,6.481,11.858,4.021,1.707,-0.042,1.008,-0.077,2.106,2.930,-0.366,80.000,8242.000,1.000
9.001,13.675,10.451,6.350,7.289,14.601,5.420,2.760,-0.041,1.008,-0.072,2.014,2.960,-0.458,80.000,8243.000,1.000
6.098,12.131,8.417,5.864,6.447,15.246,5.368,3.159,-0.043,1.010,-0.074,1.862,2.899,-0.427,80.000,8244.000,1.000
2.487,8.155,4.988,3.732,3.757,13.016,2.792,1.548,-0.045,1.012,-0.075,1.709,3.021,-0.458,80.000,8245.000,1.000
-1.081,2.448,1.117,0.137,-0.092,8.572,-1.849,-1.968,-0.045,1.013,-0.074,1.678,2.869,-0.519,80.000,8246.000,1.000
-3.846,-2.804,-2.404,-3.901,-4.480,3.304,-7.222,-6.131,-0.046,1.011,-0.077,1.556,2.930,-0.519,80.000,8247.000,1.000
-5.596,-6.077,-5.494,-7.545,-9.140,-1.790,-12.286,-9.985,-0.046,1.011,-0.077,1.343,2.869,-0.488,80.000,8248.000,1.000
-6.668,-7.865,-8.379,-10.740,-13.645,-6.427,-16.622,-13.622,-0.046,1.011,-0.076,1.221,2.930,-0.488,80.000,8249.000,1.000
-7.373,-9.461,-10.811,-13.649,-17.035,-10.348,-19.816,-17.265,-0.045,1.012,-0.074,1.068,2.808,-0.549,80.000,8250.000,1.000
-7.642,-10.937,-12.043,-15.796,-18.347,-12.856,-21.112,-20.088,-0.046,1.011,-0.074,0.916,2.808,-0.519,80.000,8251.000,1.000
-7.306,-11.128,-11.673,-16.238,-17.549,-13.456,-20.081,-20.629,-0.046,1.011,-0.076,0.732,2.838,-0.427,80.000,8252.000,1.000
-6.412,-9.481,-10.151,-14.580,-15.552,-12.633,-17.353,-18.407,-0.045,1.010,-0.075,0.732,2.716,-0.366,80.000,8253.000,1.000
-5.156,-7.125,-8.275,-11.564,-13.233,-11.470,-14.259,-14.620,-0.046,1.007,-0.074,0.641,2.625,-0.366,80.000,8254.000,1.000
-3.688,-5.753,-6.500,-8.531,-10.841,-10.635,-11.836,-11.088,-0.045,1.006,-0.074,0.458,2.594,-0.275,80.000,8255.000,1.000
-2.115,-5.845,-4.938,-6.356,-8.471,-10.095,-10.347,-8.694,-0.045,1.005,-0.075,0.519,2.502,-0.244,80.000,8256.000,1.000
-0.639,-6.413,-3.727,-4.989,-6.603,-9.664,-9.583,-7.050,-0.045,1.005,-0.072,0.549,2.625,-0.275,80.000,8257.000,1.000
0.466,-6.375,-2.994,-3.894,-5.658,-9.354,-9.231,-5.456,-0.044,1.003,-0.075,0.549,2.594,-0.214,80.000,8258.000,1.000
1.123,-5.717,-2.488,-2.742,-5.234,-9.187,-8.947,-3.849,-0.045,1.003,-0.073,0.519,2.594,-0.275,80.000,8259.000,1.000
1.635,-5.031,-1.573,-1.553,-4.306,-8.904,-8.286,-2.646,-0.045,1.002,-0.076,0.610,2.502,-0.244,80.000,8260.000,1.000
2.454,-4.274,0.178,-0.325,-2.266,-8.076,-6.793,-1.892,-0.047,1.002,-0.075,0.610,2.411,-0.183,80.000,8261.000,1.000
3.753,-2.664,2.415,1.109,0.355,-6.595,-4.394,-1.087,-0.048,1.001,-0.075,0.549,2.350,-0.275,80.000,8262.000,1.000
5.291,0.049,4.259,2.701,2.371,-5.014,-1.786,-0.043,-0.049,1.000,-0.076,0.702,2.319,-0.305,80.000,8263.000,1.000
6.653,2.794,5.164,3.965,3.074,-4.195,-0.125,0.588,-0.047,1.000,-0.073,0.702,2.228,-0.153,80.000,8264.000,1.000
7.537,4.209,5.381,4.427,2.773,-4.449,-0.060,0.126,-0.042,1.001,-0.075,0.671,2.197,-0.244,80.000,8265.000,1.000
7.791,4.222,5.469,4.199,2.184,-5.175,-1.168,-1.044,-0.040,1.000,-0.075,0.763,2.136,-0.183,80.000,8266.000,1.000
7.219,3.975,5.465,3.779,1.486,-5.555,-2.573,-1.801,-0.042,1.001,-0.076,0.732,2.136,-0.153,80.000,8267.000,1.000
5.608,4.232,4.874,3.386,0.332,-5.354,-3.866,-1.637,-0.041,1.002,-0.078,0.824,2.350,-0.092,80.000,8268.000,1.000
3.051,4.432,3.470,2.732,-1.280,-4.819,-5.106,-1.156,-0.039,1.003,-0.078,0.854,2.319,0.061,80.000,8269.000,1.000
0.012,3.466,1.607,1.362,-2.781,-4.141,-6.264,-1.228,-0.040,1.005,-0.076,0.977,2.441,0.122,80.000,8270.000,1.000
-3.158,1.021,-0.468,-0.937,-3.915,-3.426,-7.118,-2.013,-0.039,1.002,-0.075,1.038,2.380,0.153,80.000,8271.000,1.000
-6.627,-2.157,-3.157,-4.024,-5.301,-3.028,-7.667,-2.964,-0.040,1.002,-0.076,0.977,2.472,0.214,80.000,8272.000,1.000
-10.775,-5.267,-6.998,-7.495,-7.653,-3.482,-8.327,-3.664,-0.039,1.001,-0.077,1.038,2.533,0.305,80.000,8273.000,1.000
-15.459,-8.219,-11.597,-10.721,-10.587,-4.896,-9.533,-4.310,-0.040,0.999,-0.075,1.038,2.533,0.366,80.000,8274.000,1.000
-19.666,-11.033,-15.370,-12.799,-12.637,-6.533,-11.143,-5.182,-0.040,1.000,-0.078,1.038,2.594,0.427,80.000,8275.000,1.000
-21.993,-12.884,-16.609,-12.741,-12.548,-7.209,-12.331,-5.871,-0.041,0.997,-0.078,1.160,2.716,0.336,80.000,8276.000,1.000
-21.556,-12.498,-14.828,-10.068,-10.423,-6.295,-12.284,-5.541,-0.041,0.998,-0.076,1.251,2.655,0.366,80.000,8277.000,1.000
-18.517,-9.714,-11.036,-5.462,-7.529,-4.337,-11.059,-4.149,-0.042,1.000,-0.074,1.312,2.777,0.275,80.000,8278.000,1.000
-13.828,-6.156,-6.791,-0.667,-5.101,-2.567,-9.552,-2.944,-0.041,1.000,-0.077,1.404,2.686,0.214,80.000,8279.000,1.000
-8.649,-3.881,-3.156,2.533,-3.514,-1.812,-8.519,-3.331,-0.041,0.999,-0.077,1.526,2.777,0.031,80.000,8280.000,1.000
-4.020,-3.496,-0.539,3.398,-2.594,-1.995,-7.880,-5.358,-0.041,1.001,-0.076,1.678,2.747,-0.031,80.000,8281.000,1.000
-0.819,-3.982,0.822,2.375,-2.336,-2.646,-7.054,-7.675,-0.039,1.001,-0.076,1.678,2.777,0.000,80.000,8282.000,1.000
0.340,-4.334,0.638,0.319,-2.932,-3.632,-5.832,-9.016,-0.040,1.002,-0.076,1.617,2.838,-0.153,80.000,8283.000,1.000
-0.609,-4.758,-1.027,-2.157,-4.159,-5.106,-4.585,-9.311,-0.038,1.000,-0.079,1.617,2.716,-0.153,80.000,8284.000,1.000
-3.017,-5.862,-3.358,-4.576,-5.120,-6.778,-3.579,-9.131,-0.038,1.001,-0.076,1.556,2.747,-0.214,80.000,8285.000,1.000
-5.776,-7.151,-5.186,-6.211,-4.941,-7.735,-2.465,-8.555,-0.035,1.005,-0.076,1.465,2.747,-0.214,80.000,8286.000,1.000
-7.808,-7.075,-5.818,-6.247,-3.621,-7.262,-0.765,-7.104,-0.034,1.006,-0.076,1.404,2.747,-0.305,80.000,8287.000,1.000
-8.398,-4.664,-5.271,-4.387,-1.862,-5.539,1.387,-4.705,-0.036,1.006,-0.078,1.312,2.869,-0.275,80.000,8288.000,1.000
-7.198,-0.681,-3.742,-1.184,-0.122,-3.344,3.258,-2.234,-0.038,1.006,-0.080,1.251,2.991,-0.397,80.000,8289.000,1.000
-4.098,3.246,-1.147,2.418,1.815,-1.238,4.240,-0.830,-0.036,1.007,-0.082,1.160,3.052,-0.397,80.000,8290.000,1.000
0.761,6.452,2.691,5.921,4.308,0.858,4.457,-0.661,-0.034,1.007,-0.079,1.068,3.113,-0.305,80.000,8291.000,1.000
6.757,9.634,7.494,9.453,7.174,3.282,4.565,-0.749,-0.034,1.006,-0.081,0.885,3.143,-0.336,80.000,8292.000,1.000
12.788,13.340,12.356,13.094,9.761,5.982,4.915,-0.220,-0.035,1.006,-0.079,0.854,3.265,-0.336,80.000,8293.000,1.000
17.774,16.764,16.287,16.300,11.626,8.446,5.163,0.626,-0.038,1.007,-0.077,0.763,3.357,-0.305,80.000,8294.000,1.000
21.198,18.543,18.853,18.309,12.880,10.231,4.814,0.879,-0.037,1.007,-0.080,0.671,3.265,-0.366,80.000,8295.000,1.000
23.106,18.441,20.193,18.993,13.784,11.317,3.913,0.426,-0.038,1.008,-0.078,0.519,3.265,-0.427,80.000,8296.000,1.000
23.632,17.557,20.458,18.922,14.157,11.847,2.876,0.164,-0.038,1.008,-0.079,0.397,3.265,-0.366,80.000,8297.000,1.000
22.658,16.708,19.435,18.496,13.418,11.643,1.706,0.679,-0.039,1.008,-0.078,0.244,3.296,-0.305,80.000,8298.000,1.000
20.083,15.282,16.903,17.415,11.339,10.343,-0.076,1.390,-0.041,1.008,-0.078,0.183,3.357,-0.397,80.000,8299.000,1.000
16.297,12.188,13.202,15.261,8.536,8.088,-2.467,1.498,-0.042,1.004,-0.076,0.244,3.265,-0.641,80.000,8300.000,1.000
12.041,7.469,9.014,12.222,5.847,5.612,-4.552,1.213,-0.042,1.004,-0.073,0.092,3.174,-0.519,80.000,8301.000,1.000
7.734,2.332,4.633,8.947,3.322,3.440,-5.405,1.451,-0.041,1.002,-0.076,0.061,3.204,-0.641,80.000,8302.000,1.000
3.185,-2.276,-0.123,5.861,0.338,1.378,-5.036,2.550,-0.044,1.004,-0.076,0.061,3.052,-0.793,80.000,8303.000,1.000
-1.879,-6.514,-5.197,2.899,-3.219,-0.958,-4.139,3.753,-0.046,1.001,-0.074,0.183,2.899,-0.885,80.000,8304.000,1.000
-7.125,-10.807,-9.852,-0.059,-6.417,-3.333,-3.118,4.122,-0.045,1.001,-0.075,0.214,2.747,-0.916,80.000,8305.000,1.000
-11.656,-14.585,-13.167,-2.681,-8.150,-4.870,-1.735,3.696,-0.043,1.002,-0.076,0.244,2.747,-1.007,80.000,8306.000,1.000
-14.680,-16.492,-14.856,-4.351,-8.310,-4.900,0.246,3.373,-0.044,1.000,-0.077,0.183,2.716,-1.160,80.000,8307.000,1.000
-16.012,-15.972,-15.374,-4.848,-7.746,-3.657,2.447,3.724,-0.043,0.999,-0.074,0.122,2.594,-1.160,80.000,8308.000,1.000
-16.008,-14.181,-15.259,-4.695,-7.208,-2.038,4.108,4.307,-0.044,1.000,-0.076,0.336,2.411,-1.038,80.000,8309.000,1.000
-15.182,-12.945,-14.673,-4.739,-6.754,-0.811,4.777,4.293,-0.045,1.000,-0.076,0.427,2.380,-1.221,80.000,8310.000,1.000
-13.902,-12.907,-13.624,-5.390,-6.229,-0.187,4.600,3.532,-0.044,1.001,-0.073,0.488,2.319,-1.343,80.000,8311.000,1.000
-12.435,-13.136,-12.401,-6.351,-5.865,-0.098,3.971,2.699,-0.044,1.000,-0.074,0.488,2.289,-1.251,80.000,8312.000,1.000
-11.121,-12.571,-11.492,-7.074,-5.985,-0.541,3.130,2.391,-0.044,1.001,-0.071,0.610,2.319,-1.251,80.000,8313.000,1.000
-10.194,-11.249,-10.940,-7.197,-6.176,-1.384,2.317,2.527,-0.043,1.003,-0.073,0.671,2.289,-1.190,80.000,8314.000,1.000
-9.448,-9.818,-10.069,-6.553,-5.332,-2.053,2.090,2.785,-0.042,1.001,-0.075,0.824,2.228,-1.190,80.000,8315.000,1.000
-8.383,-8.316,-8.140,-5.016,-2.834,-1.848,3.099,3.314,-0.044,1.002,-0.074,0.763,2.106,-1.068,80.000,8316.000,1.000
-6.731,-6.015,-5.184,-2.561,0.609,-0.566,5.444,4.619,-0.045,1.002,-0.072,0.854,1.984,-1.099,80.000,8317.000,1.000
-4.743,-2.630,-2.015,0.448,3.556,1.233,8.268,6.609,-0.047,1.002,-0.073,0.916,1.953,-0.977,80.000,8318.000,1.000
-2.903,0.760,0.497,3.109,5.058,2.578,10.081,8.055,-0.048,1.004,-0.074,1.068,1.862,-0.854,80.000,8319.000,1.000
-1.458,2.540,2.069,4.492,5.156,2.820,9.797,7.532,-0.048,1.003,-0.073,1.038,1.862,-0.702,80.000,8320.000,1.000
-0.333,2.329,3.001,4.466,4.389,2.065,7.538,4.951,-0.048,1.002,-0.072,1.099,1.831,-0.824,80.000,8321.000,1.000
0.574,1.466,3.737,3.880,3.193,0.921,4.383,1.769,-0.048,1.003,-0.073,1.099,1.831,-0.824,80.000,8322.000,1.000
1.284,1.509,4.584,3.799,1.908,-0.077,1.430,-0.426,-0.047,1.004,-0.073,1.190,1.678,-0.793,80.000,8323.000,1.000
1.987,2.614,5.756,4.603,1.030,-0.747,-0.898,-1.314,-0.045,1.006,-0.073,1.190,1.556,-0.641,80.000,8324.000,1.000
3.126,3.776,7.407,5.868,1.054,-1.138,-2.772,-1.698,-0.045,1.004,-0.075,1.312,1.556,-0.580,80.000,8325.000,1.000
4.994,4.387,9.416,6.994,1.955,-1.282,-4.408,-2.198,-0.045,1.003,-0.075,1.221,1.495,-0.458,80.000,8326.000,1.000
7.218,4.860,11.176,7.715,2.978,-1.227,-5.867,-2.624,-0.046,1.001,-0.073,1.373,1.465,-0.488,80.000,8327.000,1.000
8.870,5.610,11.910,8.023,3.219,-1.199,-7.267,-2.668,-0.045,1.003,-0.073,1.282,1.526,-0.488,80.000,8328.000,1.000
9.238,6.093,11.394,7.900,2.525,-1.427,-8.759,-2.623,-0.044,1.003,-0.074,1.312,1.465,-0.427,80.000,8329.000,1.000
8.300,5.289,10.126,7.226,1.461,-1.877,-10.344,-3.147,-0.044,1.002,-0.073,1.404,1.526,-0.366,80.000,8330.000,1.000
6.371,2.932,8.635,5.899,0.352,-2.345,-11.859,-4.454,-0.043,1.004,-0.074,1.434,1.526,-0.336,80.000,8331.000,1.000
3.673,-0.069,6.930,4.093,-1.133,-2.723,-13.038,-5.936,-0.044,1.004,-0.074,1.404,1.617,-0.214,80.000,8332.000,1.000
0.386,-2.620,4.763,2.157,-3.318,-3.123,-13.674,-6.800,-0.044,1.003,-0.075,1.312,1.709,-0.122,80.000,8333.000,1.000
-3.119,-4.570,2.203,0.194,-5.814,-3.721,-13.735,-6.997,-0.042,1.002,-0.076,1.434,1.892,-0.214,80.000,8334.000,1.000
-6.185,-6.361,-0.164,-1.925,-7.625,-4.309,-13.060,-7.022,-0.042,1.003,-0.073,1.404,1.831,-0.214,80.000,8335.000,1.000
-8.155,-7.817,-1.682,-4.078,-8.020,-4.217,-11.139,-6.918,-0.042,1.004,-0.075,1.495,1.862,-0.275,80.000,8336.000,1.000
-8.949,-8.080,-2.330,-5.856,-7.296,-3.019,-7.673,-6.138,-0.043,1.005,-0.075,1.343,2.045,-0.214,80.000,8337.000,1.000
-9.216,-6.955,-2.809,-7.095,-6.537,-1.258,-3.327,-4.558,-0.041,1.005,-0.073,1.312,1.953,-0.214,80.000,8338.000,1.000
-9.606,-5.597,-3.693,-8.070,-6.427,-0.056,0.565,-2.975,-0.041,1.004,-0.079,1.251,2.106,-0.244,80.000,8339.000,1.000
-10.017,-5.272,-4.611,-8.911,-6.460,0.159,3.311,-2.112,-0.040,1.005,-0.078,1.312,2.075,-0.275,80.000,8340.000,1.000
-9.892,-5.854,-4.673,-9.197,-5.608,0.098,5.505,-1.528,-0.040,1.003,-0.080,1.343,2.106,-0.305,80.000,8341.000,1.000
-9.135,-6.101,-3.684,-8.451,-3.671,0.617,8.121,-0.092,-0.041,1.002,-0.077,1.251,2.258,-0.458,80.000,8342.000,1.000
-8.356,-5.291,-2.490,-6.900,-1.488,1.655,11.240,2.518,-0.041,1.001,-0.077,1.251,2.289,-0.397,80.000,8343.000,1.000
-8.227,-4.167,-2.078,-5.531,0.046,2.359,13.929,5.150,-0.040,1.002,-0.076,1.282,2.380,-0.397,80.000,8344.000,1.000
-8.851,-4.007,-2.625,-5.309,0.734,2.015,15.210,6.205,-0.041,1.005,-0.078,1.282,2.472,-0.519,80.000,8345.000,1.000
-9.743,-4.965,-3.496,-6.300,0.827,0.696,14.934,5.197,-0.040,1.007,-0.078,1.068,2.563,-0.427,80.000,8346.000,1.000
-10.215,-5.736,-3.930,-7.570,0.471,-1.000,13.686,3.063,-0.042,1.005,-0.078,1.129,2.716,-0.458,80.000,8347.000,1.000
-9.675,-4.995,-3.482,-7.923,-0.227,-2.556,12.071,1.023,-0.042,1.004,-0.079,1.099,2.777,-0.427,80.000,8348.000,1.000
-7.706,-2.802,-1.915,-6.767,-0.771,-3.768,10.301,-0.528,-0.042,1.004,-0.078,1.068,2.838,-0.549,80.000,8349.000,1.000
-4.205,-0.341,0.851,-4.324,-0.467,-4.588,8.344,-1.914,-0.042,1.005,-0.077,1.099,2.838,-0.488,80.000,8350.000,1.000
0.346,1.480,4.409,-1.160,0.740,-5.038,6.187,-3.269,-0.042,1.004,-0.077,1.007,3.052,-0.519,80.000,8351.000,1.000
4.888,2.725,7.693,2.246,1.921,-5.326,3.834,-4.146,-0.041,1.004,-0.074,0.977,3.113,-0.458,80.000,8352.000,1.000
8.299,3.710,9.556,5.462,1.981,-5.822,1.200,-4.134,-0.043,1.005,-0.079,0.946,3.113,-0.549,80.000,8353.000,1.000
10.109,4.182,9.732,8.017,0.878,-6.633,-1.695,-3.465,-0.042,1.002,-0.075,0.916,3.174,-0.366,80.000,8354.000,1.000
10.718,3.727,9.105,9.666,-0.209,-7.242,-4.361,-2.703,-0.043,1.004,-0.074,1.007,3.265,-0.366,80.000,8355.000,1.000
10.825,2.716,8.813,10.643,-0.096,-6.852,-5.984,-1.987,-0.045,1.003,-0.074,0.916,3.174,-0.427,80.000,8356.000,1.000
10.654,2.184,9.094,11.390,1.131,-5.225,-6.177,-1.010,-0.046,1.003,-0.073,0.885,3.296,-0.366,80.000,8357.000,1.000
9.798,2.519,9.115,11.913,2.253,-3.088,-5.496,0.179,-0.046,1.004,-0.075,0.793,3.235,-0.336,80.000,8358.000,1.000
7.777,2.653,7.907,11.557,2.207,-1.643,-5.046,0.730,-0.046,1.005,-0.073,0.732,3.326,-0.305,80.000,8359.000,1.000
4.631,1.077,5.325,9.644,0.977,-1.604,-5.458,-0.232,-0.047,1.003,-0.073,0.793,3.265,-0.214,80.000,8360.000,1.000
0.931,-2.368,2.074,6.285,-0.768,-2.711,-6.343,-2.459,-0.046,1.005,-0.071,0.763,3.204,-0.183,80.000,8361.000,1.000
-2.752,-6.231,-1.098,2.397,-2.638,-4.233,-6.916,-4.654,-0.047,1.005,-0.071,0.763,3.265,-0.153,80.000,8362.000,1.000
-6.207,-9.095,-3.992,-1.096,-4.768,-5.757,-6.937,-5.796,-0.047,1.005,-0.074,0.732,3.204,-0.153,80.000,8363.000,1.000
-9.285,-10.952,-6.652,-3.823,-7.114,-7.244,-6.761,-5.993,-0.046,1.004,-0.075,0.671,3.204,-0.122,80.000,8364.000,1.000
-11.499,-12.660,-8.825,-5.745,-9.017,-8.511,-6.593,-5.894,-0.047,1.003,-0.073,0.702,3.143,-0.061,80.000,8365.000,1.000
-12.316,-14.493,-10.127,-6.748,-9.853,-9.191,-6.148,-5.652,-0.045,1.001,-0.073,0.702,3.174,-0.061,80.000,8366.000,1.000
-11.908,-15.826,-10.711,-6.767,-9.964,-9.334,-5.221,-4.923,-0.046,1.001,-0.073,0.702,3.082,-0.061,80.000,8367.000,1.000
-11.215,-16.211,-11.344,-6.178,-10.391,-9.598,-4.259,-3.719,-0.045,1.001,-0.074,0.702,3.052,-0.092,80.000,8368.000,1.000
-11.092,-16.149,-12.584,-5.743,-11.599,-10.538,-3.944,-2.736,-0.046,1.004,-0.073,0.763,2.991,-0.122,80.000,8369.000,1.000
-11.587,-16.465,-14.136,-6.033,-12.915,-11.912,-4.314,-2.602,-0.045,1.001,-0.072,0.763,2.930,0.061,80.000,8370.000,1.000
-12.188,-17.140,-15.235,-6.931,-13.411,-12.894,-4.651,-3.056,-0.045,1.000,-0.071,0.854,2.808,0.061,80.000,8371.000,1.000
-12.491,-17.155,-15.439,-7.740,-12.917,-12.803,-4.184,-3.097,-0.046,1.000,-0.073,0.885,2.899,0.153,80.000,8372.000,1.000
-12.372,-15.616,-14.765,-7.759,-11.841,-11.535,-2.699,-1.992,-0.045,1.001,-0.071,0.977,2.808,0.153,80.000,8373.000,1.000
-11.653,-12.721,-13.176,-6.742,-10.258,-9.418,-0.541,0.035,-0.045,1.003,-0.073,1.068,2.655,0.031,80.000,8374.000,1.000
-9.961,-9.305,-10.342,-4.814,-7.664,-6.788,1.794,2.269,-0.043,1.000,-0.072,1.007,2.655,0.000,80.000,8375.000,1.000
-7.070,-5.692,-6.112,-2.095,-3.765,-3.896,3.928,4.435,-0.043,1.000,-0.073,1.129,2.716,0.061,80.000,8376.000,1.000
-3.262,-1.565,-1.088,1.353,0.723,-1.250,5.444,6.773,-0.044,1.001,-0.072,1.160,2.777,0.061,80.000,8377.000,1.000
0.798,3.033,3.586,5.225,4.473,0.299,5.743,9.231,-0.044,1.002,-0.072,1.160,2.563,0.061,80.000,8378.000,1.000
4.519,7.128,7.146,8.855,6.788,0.188,4.431,11.042,-0.045,1.002,-0.072,1.129,2.655,-0.031,80.000,8379.000,1.000
7.718,9.624,9.740,11.575,8.121,-1.192,1.882,11.381,-0.042,1.003,-0.070,1.251,2.594,-0.031,80.000,8380.000,1.000
10.575,10.639,12.002,13.242,9.319,-2.611,-0.760,10.347,-0.042,1.004,-0.071,1.251,2.533,-0.031,80.000,8381.000,1.000
13.233,11.598,14.251,14.339,10.705,-2.828,-2.287,9.020,-0.042,1.002,-0.073,1.282,2.625,-0.031,80.000,8382.000,1.000
15.422,13.665,16.193,15.389,12.056,-1.400,-2.220,8.388,-0.043,1.003,-0.074,1.312,2.563,-0.031,80.000,8383.000,1.000
16.541,16.258,17.269,16.274,13.147,1.192,-0.952,8.378,-0.043,1.002,-0.074,1.343,2.563,0.000,80.000,8384.000,1.000
16.080,17.531,17.103,16.271,13.930,3.975,0.726,8.142,-0.043,1.004,-0.074,1.343,2.441,0.031,80.000,8385.000,1.000
13.909,16.322,15.605,14.823,14.215,6.042,2.219,7.187,-0.043,1.004,-0.073,1.373,2.472,0.061,80.000,8386.000,1.000
10.330,13.245,12.888,12.193,13.570,6.923,3.384,5.986,-0.043,1.004,-0.075,1.373,2.502,0.000,80.000,8387.000,1.000
6.055,9.750,9.271,9.205,11.803,6.654,4.362,5.350,-0.042,1.002,-0.074,1.373,2.502,-0.061,80.000,8388.000,1.000
2.107,6.658,5.447,6.536,9.517,5.716,5.376,5.519,-0.041,1.003,-0.077,1.282,2.594,-0.122,80.000,8389.000,1.000
-0.463,4.110,2.474,4.499,7.958,4.969,6.778,6.197,-0.041,1.005,-0.078,1.404,2.655,-0.122,80.000,8390.000,1.000
-1.068,2.482,1.220,3.294,7.999,5.222,8.940,7.215,-0.040,1.006,-0.076,1.343,2.533,-0.031,80.000,8391.000,1.000
-0.045,2.481,1.591,2.992,9.227,6.565,11.765,8.633,-0.040,1.007,-0.075,1.343,2.594,-0.153,80.000,8392.000,1.000
1.411,4.052,2.453,3.143,10.249,8.130,14.404,10.133,-0.041,1.008,-0.072,1.312,2.533,-0.244,80.000,8393.000,1.000
1.898,5.654,2.416,2.631,9.862,8.622,15.649,10.672,-0.041,1.005,-0.070,1.373,2.594,-0.122,80.000,8394.000,1.000
0.611,5.236,0.696,0.313,7.726,7.210,14.722,9.201,-0.043,1.006,-0.074,1.404,2.502,-0.153,80.000,8395.000,1.000
-2.256,2.160,-2.602,-3.935,4.141,4.124,11.863,5.865,-0.043,1.005,-0.075,1.312,2.502,-0.153,80.000,8396.000,1.000
-5.749,-2.107,-6.749,-8.828,-0.351,0.464,8.203,2.217,-0.042,1.001,-0.074,1.282,2.655,-0.122,80.000,8397.000,1.000
-8.766,-5.463,-10.783,-12.554,-5.035,-2.684,4.874,-0.144,-0.040,1.001,-0.078,1.373,2.594,-0.122,80.000,8398.000,1.000
-10.484,-7.028,-13.705,-14.064,-8.910,-4.875,2.247,-0.957,-0.041,1.002,-0.076,1.434,2.594,-0.214,80.000,8399.000,1.000
-10.472,-7.249,-14.647,-13.447,-10.929,-6.132,0.123,-1.041,-0.041,1.000,-0.076,1.373,2.594,-0.275,80.000,8400.000,1.000
-8.848,-6.684,-13.395,-11.416,-10.770,-6.616,-1.734,-1.023,-0.041,1.003,-0.071,1.404,2.716,-0.305,80.000,8401.000,1.000
-6.353,-5.362,-10.812,-8.750,-9.347,-6.673,-3.552,-0.859,-0.041,1.002,-0.076,1.465,2.747,-0.336,80.000,8402.000,1.000
-3.958,-3.409,-8.375,-6.123,-8.166,-6.928,-5.764,-0.548,-0.042,1.001,-0.078,1.373,2.777,-0.183,80.000,8403.000,1.000
-2.261,-1.783,-7.157,-4.215,-8.149,-8.054,-8.894,-0.841,-0.041,1.002,-0.076,1.373,2.930,-0.153,80.000,8404.000,1.000
-1.185,-1.653,-7.169,-3.525,-9.058,-10.165,-12.932,-2.634,-0.042,1.003,-0.074,1.282,2.899,-0.122,80.000,8405.000,1.000
-0.200,-2.919,-7.544,-3.829,-9.869,-12.378,-16.777,-5.604,-0.042,1.002,-0.075,1.343,2.899,-0.153,80.000,8406.000,1.000
1.062,-4.021,-7.390,-4.165,-9.673,-13.338,-18.724,-8.062,-0.040,1.002,-0.076,1.343,2.960,-0.275,80.000,8407.000,1.000
2.484,-3.512,-6.383,-3.610,-8.114,-12.191,-17.643,-8.429,-0.042,1.003,-0.078,1.343,2.869,-0.244,80.000,8408.000,1.000
3.832,-1.363,-4.481,-1.934,-4.991,-8.821,-13.489,-6.448,-0.042,1.002,-0.076,1.312,2.777,-0.275,80.000,8409.000,1.000
5.197,1.491,-1.547,0.492,-0.038,-3.462,-6.877,-2.886,-0.045,1.002,-0.077,1.282,2.716,-0.275,80.000,8410.000,1.000
6.789,4.399,2.276,3.150,6.379,3.286,1.248,1.419,-0.043,1.004,-0.075,1.282,2.655,-0.305,80.000,8411.000,1.000
8.386,7.315,6.024,5.591,12.647,10.064,9.414,5.821,-0.044,1.005,-0.077,1.404,2.777,-0.275,80.000,8412.000,1.000
9.426,10.089,8.417,7.429,16.786,15.085,15.780,9.529,-0.043,1.004,-0.077,1.312,2.594,-0.305,80.000,8413.000,1.000
9.746,12.040,9.063,8.420,18.140,17.290,19.096,11.637,-0.042,1.004,-0.077,1.251,2.625,-0.397,80.000,8414.000,1.000
9.943,12.619,8.908,8.677,17.886,17.179,19.597,11.826,-0.042,1.005,-0.077,1.221,2.625,-0.366,80.000,8415.000,1.000
10.916,12.452,9.434,8.869,17.870,16.528,18.916,11.024,-0.042,1.004,-0.075,1.160,2.441,-0.397,80.000,8416.000,1.000
13.119,13.218,11.458,9.982,19.124,17.175,18.970,10.973,-0.042,1.006,-0.077,0.977,2.563,-0.305,80.000,8417.000,1.000
16.191,16.009,14.568,12.464,21.356,19.801,20.624,12.721,-0.041,1.007,-0.080,1.038,2.594,-0.244,80.000,8418.000,1.000
19.179,19.928,17.533,15.526,23.532,23.619,23.178,15.500,-0.042,1.006,-0.078,0.946,2.625,-0.214,80.000,8419.000,1.000
20.976,22.556,19.004,17.391,24.502,26.947,24.962,17.264,-0.044,1.006,-0.077,0.916,2.625,-0.397,80.000,8420.000,1.000
20.483,21.764,17.812,16.341,23.053,27.974,24.348,16.275,-0.043,1.006,-0.075,0.946,2.625,-0.214,80.000,8421.000,1.000
16.760,16.982,13.127,11.709,18.016,25.340,20.399,12.126,-0.042,1.006,-0.075,0.916,2.502,-0.183,80.000,8422.000,1.000
9.621,8.998,4.992,4.126,9.114,18.647,13.114,5.494,-0.042,1.004,-0.074,0.946,2.411,-0.092,80.000,8423.000,1.000
0.258,-0.808,-5.096,-4.907,-2.089,8.968,3.582,-2.524,-0.042,1.004,-0.077,0.854,2.411,-0.153,80.000,8424.000,1.000
-8.959,-10.622,-14.420,-13.548,-12.471,-1.119,-6.049,-10.513,-0.041,1.006,-0.077,0.977,2.472,-0.153,80.000,8425.000,1.000
-15.677,-18.135,-20.447,-20.033,-19.171,-8.622,-13.332,-16.687,-0.042,1.005,-0.077,0.885,2.411,-0.092,80.000,8426.000,1.000
-18.936,-21.460,-22.476,-23.314,-21.498,-11.983,-16.966,-19.649,-0.041,1.005,-0.079,1.038,2.411,-0.092,80.000,8427.000,1.000
-19.479,-20.608,-21.880,-23.646,-21.030,-12.017,-17.665,-19.547,-0.040,1.004,-0.076,0.977,2.441,-0.092,80.000,8428.000,1.000
-18.642,-17.696,-20.595,-22.363,-19.823,-10.938,-17.388,-18.114,-0.041,1.003,-0.079,1.038,2.472,-0.061,80.000,8429.000,1.000
-17.054,-15.157,-19.456,-20.774,-18.708,-10.374,-17.571,-17.158,-0.041,1.002,-0.079,1.068,2.563,-0.092,80.000,8430.000,1.000
-14.429,-13.636,-17.940,-19.092,-17.242,-10.307,-18.101,-16.951,-0.041,1.002,-0.073,1.099,2.472,-0.183,80.000,8431.000,1.000
-10.361,-11.834,-15.187,-16.465,-14.833,-9.813,-17.946,-16.258,-0.042,1.000,-0.073,1.068,2.533,-0.122,80.000,8432.000,1.000
-5.098,-8.488,-11.014,-12.150,-11.562,-8.516,-16.606,-13.982,-0.043,0.998,-0.078,1.038,2.533,-0.183,80.000,8433.000,1.000
0.386,-4.137,-6.066,-6.649,-8.014,-7.084,-14.710,-10.558,-0.041,0.996,-0.075,1.099,2.625,-0.061,80.000,8434.000,1.000
4.966,-0.579,-1.326,-1.528,-4.702,-6.325,-13.160,-7.446,-0.042,0.996,-0.076,1.190,2.533,-0.153,80.000,8435.000,1.000
7.922,1.183,2.386,1.925,-1.853,-6.174,-11.976,-5.403,-0.040,0.995,-0.078,1.312,2.533,-0.122,80.000,8436.000,1.000
9.028,1.782,4.521,3.589,0.376,-5.844,-10.324,-3.766,-0.040,0.999,-0.078,1.373,2.686,-0.183,80.000,8437.000,1.000
8.418,2.282,4.847,4.066,1.859,-4.736,-7.532,-1.596,-0.040,1.001,-0.079,1.495,2.777,-0.275,80.000,8438.000,1.000
6.654,2.867,3.756,3.797,2.901,-2.773,-3.681,1.035,-0.038,1.005,-0.078,1.434,2.777,-0.214,80.000,8439.000,1.000
4.632,3.064,2.291,2.834,4.254,-0.104,0.680,3.203,-0.038,1.007,-0.077,1.404,2.777,-0.183,80.000,8440.000,1.000
3.077,2.806,1.391,1.193,6.234,2.999,4.911,4.197,-0.037,1.007,-0.079,1.465,2.777,-0.183,80.000,8441.000,1.000
2.130,2.721,1.069,-0.875,8.019,5.942,8.321,4.064,-0.039,1.008,-0.081,1.343,2.899,-0.214,80.000,8442.000,1.000
1.444,3.290,0.613,-2.992,8.326,7.942,10.231,3.153,-0.039,1.008,-0.080,1.312,3.021,-0.092,80.000,8443.000,1.000
0.724,4.100,-0.367,-4.869,6.857,8.637,10.328,1.535,-0.042,1.008,-0.081,1.251,3.021,-0.061,80.000,8444.000,1.000
0.184,4.380,-1.293,-6.180,4.751,8.510,9.072,-0.774,-0.041,1.006,-0.077,1.221,3.021,-0.092,80.000,8445.000,1.000
0.423,4.202,-1.149,-6.322,3.485,8.539,7.536,-3.195,-0.040,1.007,-0.080,1.221,3.174,-0.031,80.000,8446.000,1.000
1.802,4.664,0.481,-4.697,3.529,9.360,6.593,-4.679,-0.037,1.005,-0.082,1.099,3.204,0.000,80.000,8447.000,1.000
4.002,6.624,3.052,-1.408,4.261,10.788,6.245,-4.706,-0.037,1.005,-0.082,1.099,3.265,-0.031,80.000,8448.000,1.000
6.263,9.501,5.647,2.430,4.928,12.101,5.785,-3.946,-0.037,1.005,-0.078,1.038,3.357,0.031,80.000,8449.000,1.000
8.018,11.775,7.685,5.299,5.301,12.712,4.595,-3.604,-0.037,1.004,-0.076,0.977,3.326,0.061,80.000,8450.000,1.000
9.084,12.505,8.930,6.232,5.308,12.500,2.603,-4.214,-0.037,1.005,-0.077,0.977,3.357,0.122,80.000,8451.000,1.000
9.186,11.901,8.978,5.187,4.452,11.517,0.036,-5.334,-0.039,1.002,-0.077,1.007,3.387,0.122,80.000,8452.000,1.000
7.775,10.468,7.264,2.735,2.166,9.712,-2.874,-6.229,-0.040,1.003,-0.076,0.916,3.326,0.000,80.000,8453.000,1.000
4.583,8.114,3.775,-0.420,-1.223,7.161,-5.769,-6.562,-0.041,1.003,-0.077,0.946,3.174,-0.092,80.000,8454.000,1.000
0.127,4.521,-0.566,-3.652,-4.331,4.414,-7.999,-6.347,-0.043,1.005,-0.077,0.946,3.265,-0.214,80.000,8455.000,1.000
-4.528,0.200,-4.470,-6.316,-5.827,2.250,-8.850,-5.402,-0.042,1.007,-0.075,0.732,3.265,-0.366,80.000,8456.000,1.000
-8.508,-3.472,-7.235,-7.794,-5.656,0.847,-8.171,-3.300,-0.042,1.007,-0.076,0.763,3.113,-0.458,80.000,8457.000,1.000
-11.590,-5.598,-9.036,-7.901,-4.971,-0.679,-6.789,-0.121,-0.040,1.006,-0.074,0.732,3.082,-0.671,80.000,8458.000,1.000
-13.925,-6.724,-10.259,-7.160,-4.828,-3.542,-6.034,3.065,-0.042,1.005,-0.076,0.610,3.082,-0.671,80.000,8459.000,1.000
-15.393,-7.981,-10.747,-6.369,-5.240,-7.989,-6.683,4.880,-0.041,1.006,-0.074,0.671,3.021,-0.580,80.000,8460.000,1.000
-15.434,-9.472,-9.950,-5.815,-5.553,-12.875,-8.403,4.861,-0.038,1.007,-0.075,0.549,2.960,-0.702,80.000,8461.000,1.000
-13.629,-10.053,-7.782,-5.061,-5.435,-16.600,-10.265,3.778,-0.038,1.005,-0.077,0.519,2.899,-0.610,80.000,8462.000,1.000
-10.307,-8.818,-5.010,-3.599,-5.129,-18.299,-11.641,2.634,-0.039,1.007,-0.079,0.549,2.991,-0.763,80.000,8463.000,1.000
-6.380,-6.315,-2.584,-1.549,-4.814,-18.080,-12.469,1.585,-0.040,1.006,-0.077,0.580,2.991,-0.580,80.000,8464.000,1.000
-2.613,-3.869,-0.764,0.457,-4.099,-16.313,-12.697,0.185,-0.041,1.007,-0.076,0.458,2.930,-0.549,80.000,8465.000,1.000
0.701,-2.080,0.810,1.947,-2.490,-13.160,-11.845,-1.521,-0.041,1.008,-0.075,0.397,2.899,-0.519,80.000,8466.000,1.000
3.296,-0.581,2.188,2.879,-0.304,-9.024,-9.500,-2.744,-0.042,1.007,-0.073,0.275,3.021,-0.580,80.000,8467.000,1.000
4.637,0.839,2.793,3.292,1.345,-4.956,-6.087,-2.942,-0.039,1.009,-0.070,0.153,2.930,-0.580,80.000,8468.000,1.000
4.429,1.544,2.221,2.998,1.671,-2.121,-2.776,-2.609,-0.040,1.006,-0.073,0.092,2.930,-0.519,80.000,8469.000,1.000
3.183,0.838,0.973,1.841,1.048,-0.851,-0.476,-2.708,-0.039,1.003,-0.074,0.061,2.991,-0.427,80.000,8470.000,1.000
1.930,-0.799,0.085,0.179,0.518,-0.377,0.923,-3.414,-0.042,1.002,-0.076,0.153,2.960,-0.488,80.000,8471.000,1.000
1.438,-1.769,0.152,-1.114,0.638,0.396,2.135,-3.869,-0.042,1.001,-0.075,0.153,3.021,-0.397,80.000,8472.000,1.000
1.815,-0.858,0.962,-1.331,1.138,1.905,3.505,-3.291,-0.040,1.000,-0.071,0.122,3.021,-0.397,80.000,8473.000,1.000
2.745,1.564,2.025,-0.587,1.648,3.820,4.742,-1.999,-0.044,0.999,-0.073,0.122,2.960,-0.427,80.000,8474.000,1.000
3.878,4.105,3.164,0.350,2.312,5.704,5.553,-0.992,-0.044,0.998,-0.073,0.244,2.808,-0.305,80.000,8475.000,1.000
4.940,5.897,4.462,0.934,3.435,7.469,6.168,-0.653,-0.045,0.998,-0.072,0.275,2.777,-0.275,80.000,8476.000,1.000
5.676,7.223,5.807,1.360,4.768,9.137,7.007,-0.335,-0.044,0.997,-0.071,0.397,2.777,-0.366,80.000,8477.000,1.000
5.969,8.621,6.809,2.130,5.566,10.472,7.966,0.629,-0.045,0.997,-0.069,0.427,2.625,-0.305,80.000,8478.000,1.000
6.062,9.875,7.295,3.298,5.474,11.134,8.404,1.911,-0.046,0.997,-0.070,0.549,2.502,-0.427,80.000,8479.000,1.000
6.434,10.288,7.618,4.349,4.991,11.181,7.915,2.565,-0.045,0.993,-0.069,0.610,2.472,-0.397,80.000,8480.000,1.000
7.342,9.786,8.224,4.813,4.828,11.160,6.867,2.286,-0.045,0.995,-0.069,0.732,2.441,-0.397,80.000,8481.000,1.000
8.477,9.177,8.944,4.784,4.979,11.468,5.984,1.897,-0.045,0.994,-0.070,0.824,2.319,-0.519,80.000,8482.000,1.000
9.033,8.989,8.891,4.523,4.669,11.619,5.449,2.313,-0.044,0.995,-0.072,0.854,2.258,-0.519,80.000,8483.000,1.000
8.166,8.431,7.169,3.726,3.175,10.411,4.613,3.253,-0.042,0.999,-0.070,0.977,2.136,-0.488,80.000,8484.000,1.000
5.598,6.103,3.700,1.703,0.567,7.031,2.729,3.510,-0.042,1.000,-0.070,0.946,2.136,-0.580,80.000,8485.000,1.000
1.789,1.769,-0.671,-1.602,-2.451,1.928,-0.150,2.451,-0.041,1.000,-0.071,1.068,2.045,-0.549,80.000,8486.000,1.000
-2.493,-3.132,-4.927,-5.219,-5.340,-3.579,-3.245,0.728,-0.040,1.001,-0.072,1.129,2.167,-0.580,80.000,8487.000,1.000
-6.613,-6.967,-8.587,-8.012,-8.084,-8.392,-5.916,-0.701,-0.041,1.004,-0.072,1.221,2.136,-0.610,80.000,8488.000,1.000
-10.108,-9.513,-11.589,-9.665,-10.654,-12.148,-8.094,-1.732,-0.041,1.003,-0.076,1.160,2.228,-0.641,80.000,8489.000,1.000
-12.556,-11.639,-13.708,-10.595,-12.461,-14.868,-9.832,-2.885,-0.040,1.004,-0.076,1.251,2.167,-0.641,80.000,8490.000,1.000
-13.604,-13.666,-14.455,-11.043,-12.740,-16.483,-10.752,-4.137,-0.040,1.004,-0.068,1.251,2.228,-0.610,80.000,8491.000,1.000
-13.164,-14.679,-13.590,-10.645,-11.405,-16.933,-10.317,-4.642,-0.041,1.004,-0.067,1.190,2.319,-0.641,80.000,8492.000,1.000
-11.503,-13.666,-11.431,-8.976,-9.142,-16.510,-8.530,-3.780,-0.040,1.006,-0.072,1.221,2.258,-0.580,80.000,8493.000,1.000
-9.022,-10.873,-8.502,-6.264,-6.550,-15.728,-5.989,-2.012,-0.040,1.004,-0.072,1.343,2.289,-0.549,80.000,8494.000,1.000
-5.979,-7.615,-5.092,-3.341,-3.618,-14.793,-3.250,-0.398,-0.040,1.002,-0.070,1.221,2.441,-0.580,80.000,8495.000,1.000
-2.557,-4.862,-1.355,-0.888,-0.209,-13.453,-0.391,0.592,-0.042,1.004,-0.073,1.373,2.441,-0.610,80.000,8496.000,1.000
0.882,-2.439,2.317,1.132,3.277,-11.433,2.778,1.542,-0.040,1.004,-0.073,1.434,2.411,-0.458,80.000,8497.000,1.000
3.787,0.175,5.307,3.180,6.093,-8.887,6.186,3.235,-0.042,1.003,-0.071,1.434,2.411,-0.519,80.000,8498.000,1.000
5.831,2.762,7.342,5.436,7.974,-6.225,9.403,5.582,-0.042,1.004,-0.073,1.404,2.441,-0.488,80.000,8499.000,1.000
7.213,4.608,8.880,7.592,9.502,-3.574,12.043,7.718,-0.042,1.004,-0.076,1.495,2.502,-0.458,80.000,8500.000,1.000
8.322,5.625,10.582,9.246,11.338,-0.717,14.067,9.000,-0.041,1.006,-0.075,1.526,2.594,-0.427,80.000,8501.000,1.000
9.142,6.586,12.394,10.267,13.228,2.408,15.539,9.508,-0.040,1.006,-0.075,1.587,2.655,-0.397,80.000,8502.000,1.000
9.246,8.049,13.501,10.662,14.123,5.363,16.243,9.452,-0.041,1.005,-0.073,1.678,2.625,-0.366,80.000,8503.000,1.000
8.347,9.430,13.298,10.292,13.382,7.549,15.749,8.493,-0.041,1.005,-0.077,1.801,2.686,-0.366,80.000,8504.000,1.000
6.658,9.579,12.094,8.922,11.462,8.790,13.900,6.063,-0.040,1.004,-0.074,1.831,2.777,-0.305,80.000,8505.000,1.000
4.657,8.191,10.654,6.631,9.233,9.424,11.052,2.300,-0.043,1.006,-0.072,1.831,2.808,-0.366,80.000,8506.000,1.000
2.660,6.218,9.286,4.017,6.953,9.830,7.741,-1.678,-0.042,1.005,-0.075,1.740,2.808,-0.336,80.000,8507.000,1.000
0.726,4.692,7.655,1.798,4.275,9.919,4.189,-4.655,-0.044,1.004,-0.079,1.892,2.808,-0.366,80.000,8508.000,1.000
-1.077,3.484,5.461,0.194,1.098,9.223,0.320,-6.347,-0.043,1.002,-0.076,1.892,2.930,-0.336,80.000,8509.000,1.000
-2.478,1.659,2.990,-1.110,-1.973,7.537,-3.709,-7.238,-0.042,1.001,-0.075,2.045,2.869,-0.336,80.000,8510.000,1.000
-3.297,-1.163,0.756,-2.436,-4.262,5.217,-7.308,-7.588,-0.043,1.001,-0.075,1.984,2.808,-0.336,80.000,8511.000,1.000
-3.898,-4.319,-1.282,-3.780,-5.922,2.739,-9.938,-7.064,-0.042,1.000,-0.075,2.106,2.747,-0.275,80.000,8512.000,1.000
-5.096,-7.002,-3.726,-5.018,-7.702,0.275,-11.524,-5.379,-0.041,1.000,-0.074,2.106,2.838,-0.214,80.000,8513.000,1.000
-7.463,-9.184,-6.866,-6.214,-9.771,-2.089,-12.232,-2.917,-0.039,1.000,-0.073,2.228,2.899,-0.031,80.000,8514.000,1.000
-10.745,-11.300,-10.093,-7.524,-11.257,-3.890,-11.999,-0.484,-0.039,1.000,-0.079,2.258,2.899,0.061,80.000,8515.000,1.000
-14.024,-13.205,-12.427,-8.866,-11.244,-4.385,-10.554,1.462,-0.039,1.000,-0.078,2.350,2.960,0.122,80.000,8516.000,1.000
-16.503,-14.069,-13.575,-9.946,-10.001,-3.314,-7.964,3.041,-0.040,1.003,-0.079,2.350,3.082,0.244,80.000,8517.000,1.000
-18.035,-13.497,-14.190,-10.656,-8.831,-1.378,-4.968,4.354,-0.041,1.003,-0.079,2.350,3.143,0.275,80.000,8518.000,1.000
-18.849,-12.330,-14.984,-11.291,-8.677,0.267,-2.553,4.967,-0.041,1.002,-0.078,2.319,3.235,0.305,80.000,8519.000,1.000
-19.050,-11.978,-15.941,-12.281,-9.340,0.825,-1.326,4.233,-0.042,1.001,-0.080,2.411,3.113,0.336,80.000,8520.000,1.000
-18.576,-13.004,-16.564,-13.661,-10.163,0.142,-1.294,2.162,-0.041,1.002,-0.077,2.350,3.174,0.427,80.000,8521.000,1.000
-17.448,-14.536,-16.600,-14.802,-10.950,-1.489,-2.033,-0.191,-0.041,0.999,-0.082,2.350,3.265,0.397,80.000,8522.000,1.000
-15.927,-15.325,-16.281,-14.926,-11.937,-3.711,-3.094,-1.609,-0.042,0.999,-0.085,2.319,3.174,0.305,80.000,8523.000,1.000
-14.380,-15.200,-15.891,-13.950,-13.069,-6.286,-4.274,-1.937,-0.042,1.000,-0.083,2.350,3.143,0.275,80.000,8524.000,1.000
-12.941,-14.903,-15.234,-12.487,-13.586,-8.745,-5.325,-1.936,-0.042,1.002,-0.082,2.350,3.143,0.275,80.000,8525.000,1.000
-11.435,-14.644,-13.757,-11.030,-12.584,-10.161,-5.631,-2.015,-0.043,1.003,-0.081,2.258,3.021,0.153,80.000,8526.000,1.000
-9.690,-13.598,-11.286,-9.483,-10.075,-9.807,-4.706,-1.768,-0.042,1.002,-0.082,2.350,3.082,0.061,80.000,8527.000,1.000
-7.821,-11.142,-8.452,-7.621,-7.208,-8.026,-3.013,-0.931,-0.040,1.001,-0.085,2.319,3.143,-0.031,80.000,8528.000,1.000
-6.113,-8.029,-6.184,-5.689,-5.211,-6.060,-1.800,-0.184,-0.041,1.002,-0.088,2.350,3.021,-0.153,80.000,8529.000,1.000
-4.666,-5.721,-4.810,-4.165,-4.195,-4.840,-1.824,-0.478,-0.039,1.000,-0.084,2.319,3.021,-0.122,80.000,8530.000,1.000
-3.290,-4.694,-3.880,-3.041,-3.338,-4.262,-2.621,-1.789,-0.038,1.002,-0.083,2.350,3.082,-0.061,80.000,8531.000,1.000
-1.732,-3.934,-2.828,-1.672,-2.116,-3.712,-3.223,-3.031,-0.036,1.002,-0.081,2.289,3.082,-0.061,80.000,8532.000,1.000
0.108,-2.231,-1.474,0.564,-0.821,-2.891,-3.253,-3.231,-0.036,1.002,-0.083,2.228,3.082,-0.153,80.000,8533.000,1.000
2.123,0.262,0.104,3.481,0.094,-2.030,-3.183,-2.630,-0.036,1.003,-0.081,2.228,3.174,-0.153,80.000,8534.000,1.000
4.000,2.074,1.748,6.012,0.482,-1.609,-3.857,-2.555,-0.038,1.006,-0.083,2.106,3.204,-0.122,80.000,8535.000,1.000
5.296,1.973,3.111,7.047,0.228,-1.974,-5.817,-4.101,-0.038,1.004,-0.082,1.984,3.265,-0.092,80.000,8536.000,1.000
5.607,0.215,3.655,6.416,-0.946,-3.071,-8.847,-6.945,-0.037,1.006,-0.080,1.892,3.326,-0.214,80.000,8537.000,1.000
4.798,-1.922,3.056,4.952,-3.011,-4.426,-12.035,-9.655,-0.037,1.006,-0.083,1.831,3.387,-0.275,80.000,8538.000,1.000
3.123,-3.544,1.629,3.629,-5.143,-5.337,-14.276,-11.094,-0.036,1.005,-0.082,1.709,3.326,-0.214,80.000,8539.000,1.000
1.182,-4.652,0.213,2.852,-6.078,-5.129,-14.732,-11.138,-0.035,1.006,-0.081,1.617,3.296,-0.366,80.000,8540.000,1.000
-0.353,-5.306,-0.440,2.626,-5.143,-3.429,-12.992,-10.045,-0.036,1.006,-0.082,1.495,3.357,-0.336,80.000,8541.000,1.000
-1.209,-5.061,-0.338,2.936,-2.981,-0.548,-9.302,-7.862,-0.036,1.005,-0.082,1.373,3.448,-0.275,80.000,8542.000,1.000
-1.811,-3.789,-0.355,3.516,-1.198,2.337,-4.852,-4.957,-0.037,1.006,-0.078,1.160,3.448,-0.366,80.000,8543.000,1.000
-2.887,-2.514,-1.426,3.611,-1.018,3.863,-1.294,-2.565,-0.038,1.007,-0.081,1.221,3.448,-0.305,80.000,8544.000,1.000
-4.683,-2.639,-3.586,2.457,-2.278,3.600,0.427,-2.009,-0.037,1.008,-0.083,1.068,3.510,-0.427,80.000,8545.000,1.000
-6.810,-4.408,-6.079,0.019,-3.930,2.297,0.650,-3.393,-0.038,1.007,-0.081,0.946,3.448,-0.397,80.000,8546.000,1.000
-8.782,-6.571,-8.289,-2.898,-5.291,1.042,0.440,-5.368,-0.040,1.005,-0.080,0.793,3.479,-0.519,80.000,8547.000,1.000
-10.469,-7.728,-10.172,-5.292,-6.399,0.395,0.658,-6.306,-0.041,1.004,-0.081,0.580,3.479,-0.641,80.000,8548.000,1.000
-11.960,-7.731,-11.817,-6.730,-7.294,0.313,1.564,-5.665,-0.040,1.004,-0.081,0.549,3.510,-0.702,80.000,8549.000,1.000
-13.161,-7.435,-12.878,-7.418,-7.430,0.736,3.177,-4.019,-0.042,1.005,-0.080,0.458,3.540,-0.702,80.000,8550.000,1.000
-13.706,-7.252,-12.711,-7.519,-6.103,1.930,5.678,-1.863,-0.043,1.005,-0.084,0.397,3.448,-0.824,80.000,8551.000,1.000
-13.329,-6.556,-11.117,-6.753,-3.425,4.040,9.101,0.999,-0.042,1.004,-0.083,0.397,3.357,-0.946,80.000,8552.000,1.000
-12.168,-4.752,-8.728,-4.894,-0.491,6.422,12.679,4.612,-0.042,1.004,-0.083,0.458,3.326,-1.007,80.000,8553.000,1.000
-10.574,-2.369,-6.393,-2.366,1.644,7.922,15.036,7.988,-0.042,1.002,-0.080,0.397,3.235,-1.038,80.000,8554.000,1.000
-8.683,-0.496,-4.329,0.009,2.967,7.990,15.321,9.719,-0.041,1.003,-0.081,0.427,3.143,-1.099,80.000,8555.000,1.000
-6.341,0.653,-2.161,1.806,4.185,7.222,13.938,9.409,-0.041,1.001,-0.078,0.336,3.082,-1.068,80.000,8556.000,1.000
-3.497,2.016,0.265,3.272,5.561,6.566,11.968,8.044,-0.043,1.002,-0.079,0.336,3.021,-1.099,80.000,8557.000,1.000
-0.402,4.476,2.582,4.879,6.602,6.366,10.108,6.885,-0.042,1.002,-0.077,0.427,3.052,-1.007,80.000,8558.000,1.000
2.706,7.779,4.556,6.823,7.049,6.428,8.455,6.348,-0.042,1.004,-0.079,0.427,2.899,-1.038,80.000,8559.000,1.000
5.794,10.818,6.549,8.918,7.492,6.598,6.997,6.032,-0.043,1.002,-0.076,0.549,2.869,-1.038,80.000,8560.000,1.000
8.771,12.811,8.974,10.854,8.548,6.865,5.811,5.504,-0.042,1.001,-0.078,0.549,2.838,-1.038,80.000,8561.000,1.000
11.232,13.914,11.525,12.483,9.815,6.953,4.758,4.769,-0.042,1.002,-0.080,0.549,2.808,-1.038,80.000,8562.000,1.000
12.662,14.614,13.273,13.735,10.174,6.249,3.358,3.975,-0.043,1.000,-0.079,0.519,2.808,-0.916,80.000,8563.000,1.000
12.973,14.930,13.691,14.435,9.196,4.554,1.348,2.994,-0.043,1.000,-0.078,0.549,2.747,-0.946,80.000,8564.000,1.000
12.775,14.610,13.353,14.446,7.820,2.731,-0.715,1.658,-0.043,1.000,-0.077,0.671,2.716,-0.946,80.000,8565.000,1.000
12.915,13.893,13.313,13.990,7.328,2.205,-1.693,0.370,-0.044,1.002,-0.078,0.702,2.716,-0.793,80.000,8566.000,1.000
13.623,13.570,13.870,13.602,7.888,3.653,-0.847,0.060,-0.041,1.003,-0.077,0.641,2.686,-0.732,80.000,8567.000,1.000
14.175,13.940,14.190,13.508,8.425,6.247,1.367,1.173,-0.042,1.006,-0.076,0.702,2.655,-0.702,80.000,8568.000,1.000
13.521,14.085,13.230,13.185,7.900,8.324,3.562,2.898,-0.042,1.003,-0.075,0.793,2.594,-0.641,80.000,8569.000,1.000
11.305,12.727,10.852,11.813,6.391,8.831,4.618,3.813,-0.043,1.004,-0.076,0.885,2.441,-0.702,80.000,8570.000,1.000
8.161,9.763,7.873,9.173,4.694,8.033,4.467,3.285,-0.043,1.003,-0.075,0.885,2.380,-0.671,80.000,8571.000,1.000
5.066,6.561,5.144,5.970,3.210,6.892,3.676,1.941,-0.044,1.003,-0.076,0.916,2.441,-0.671,80.000,8572.000,1.000
2.624,4.633,2.946,3.256,1.714,6.104,2.656,0.815,-0.043,1.003,-0.079,1.007,2.228,-0.610,80.000,8573.000,1.000
1.008,4.273,1.333,1.636,0.217,5.862,1.591,0.338,-0.044,1.000,-0.078,1.099,2.197,-0.488,80.000,8574.000,1.000
0.307,4.614,0.556,1.008,-0.603,6.223,0.873,0.283,-0.045,1.001,-0.077,1.221,2.167,-0.519,80.000,8575.000,1.000
0.462,4.731,0.646,0.804,-0.287,7.147,1.018,0.363,-0.043,1.002,-0.079,1.282,2.228,-0.336,80.000,8576.000,1.000
0.920,4.364,0.818,0.392,0.402,8.155,2.051,0.561,-0.042,1.002,-0.077,1.312,2.197,-0.305,80.000,8577.000,1.000
0.819,3.638,-0.066,-0.596,0.046,8.379,3.286,0.895,-0.040,1.002,-0.077,1.312,2.289,-0.275,80.000,8578.000,1.000
-0.242,2.496,-2.228,-2.111,-1.736,7.321,3.965,1.139,-0.042,1.003,-0.080,1.434,2.350,-0.275,80.000,8579.000,1.000
-1.745,0.868,-4.471,-3.684,-3.646,5.523,4.095,1.068,-0.040,1.003,-0.078,1.587,2.228,-0.214,80.000,8580.000,1.000
-2.691,-0.656,-5.182,-4.553,-4.002,4.206,4.462,1.017,-0.040,1.001,-0.077,1.587,2.350,-0.214,80.000,8581.000,1.000
-2.514,-0.939,-3.817,-4.041,-2.479,4.071,5.718,1.795,-0.041,1.001,-0.077,1.404,2.319,-0.122,80.000,8582.000,1.000
-1.565,0.400,-1.403,-2.211,-0.424,4.446,7.385,3.651,-0.038,1.002,-0.081,1.434,2.502,-0.153,80.000,8583.000,1.000
-0.593,2.156,0.508,-0.078,0.533,3.830,8.041,5.559,-0.040,1.004,-0.080,1.556,2.563,-0.183,80.000,8584.000,1.000
0.227,2.675,1.367,1.266,0.079,1.461,6.786,6.174,-0.036,1.002,-0.078,1.526,2.563,-0.183,80.000,8585.000,1.000
1.452,1.728,1.913,1.762,-0.746,-1.897,4.300,5.463,-0.039,1.002,-0.080,1.556,2.655,-0.153,80.000,8586.000,1.000
3.497,0.675,2.921,2.326,-1.008,-4.934,2.081,4.790,-0.038,1.002,-0.080,1.465,2.747,-0.122,80.000,8587.000,1.000
5.857,0.709,4.124,3.611,-0.883,-7.253,0.725,5.209,-0.038,1.004,-0.078,1.434,2.838,-0.092,80.000,8588.000,1.000
7.538,1.426,4.665,5.146,-1.082,-9.538,-0.608,6.160,-0.038,1.005,-0.080,1.526,2.991,-0.183,80.000,8589.000,1.000
8.202,1.523,4.361,5.916,-1.711,-12.364,-2.933,6.226,-0.039,1.003,-0.081,1.526,2.991,-0.214,80.000,8590.000,1.000
8.573,0.720,4.094,5.638,-2.077,-15.184,-6.022,4.927,-0.037,1.003,-0.078,1.465,3.143,-0.275,80.000,8591.000,1.000
9.710,0.442,4.973,5.251,-1.471,-16.664,-8.485,3.366,-0.038,1.004,-0.080,1.343,3.174,-0.275,80.000,8592.000,1.000
12.086,2.339,7.403,6.041,0.219,-15.896,-9.145,2.984,-0.038,1.003,-0.078,1.343,3.204,-0.183,80.000,8593.000,1.000
15.312,6.368,10.951,8.339,2.662,-13.126,-8.076,3.910,-0.037,1.004,-0.078,1.373,3.357,-0.183,80.000,8594.000,1.000
18.487,10.725,14.751,11.174,5.460,-9.377,-6.303,4.881,-0.038,1.002,-0.079,1.312,3.448,-0.397,80.000,8595.000,1.000
20.665,13.605,17.808,13.166,8.139,-5.601,-4.726,4.790,-0.038,1.004,-0.079,1.312,3.448,-0.305,80.000,8596.000,1.000
21.140,14.628,19.127,13.582,9.973,-2.280,-3.520,3.862,-0.038,1.005,-0.080,1.312,3.540,-0.244,80.000,8597.000,1.000
19.551,14.323,17.975,12.436,10.198,0.319,-2.530,2.965,-0.040,1.004,-0.079,1.251,3.632,-0.122,80.000,8598.000,1.000
16.015,12.777,14.359,9.896,8.655,1.876,-1.844,2.199,-0.040,1.006,-0.081,1.129,3.693,-0.244,80.000,8599.000,1.000
11.362,9.648,9.345,6.148,6.149,2.321,-1.635,0.852,-0.040,1.007,-0.077,1.129,3.754,-0.214,80.000,8600.000,1.000
6.997,5.491,4.664,1.907,3.965,2.259,-1.580,-1.268,-0.038,1.006,-0.078,1.068,3.754,-0.305,80.000,8601.000,1.000
4.116,2.096,1.606,-1.516,2.828,2.605,-0.972,-3.188,-0.040,1.008,-0.075,0.793,3.815,-0.275,80.000,8602.000,1.000
2.914,0.909,0.208,-3.118,2.422,3.639,0.455,-3.812,-0.040,1.008,-0.077,0.793,3.784,-0.336,80.000,8603.000,1.000
2.754,1.580,-0.239,-2.975,2.144,4.806,2.243,-3.126,-0.041,1.006,-0.079,0.824,3.845,-0.214,80.000,8604.000,1.000
3.101,2.633,-0.018,-1.836,2.157,5.608,3.973,-1.849,-0.040,1.005,-0.078,0.671,3.876,-0.153,80.000,8605.000,1.000
3.973,3.302,1.236,-0.201,3.204,6.269,5.854,-0.225,-0.039,1.005,-0.080,0.641,3.876,-0.153,80.000,8606.000,1.000
5.461,4.151,3.648,1.928,5.447,7.223,8.270,2.244,-0.040,1.006,-0.079,0.519,3.815,-0.214,80.000,8607.000,1.000
7.239,5.933,6.570,4.539,8.093,8.361,11.060,5.857,-0.040,1.004,-0.080,0.610,3.937,-0.092,80.000,8608.000,1.000
8.782,8.313,9.175,7.172,10.312,9.122,13.543,9.860,-0.040,1.003,-0.078,0.580,3.906,0.031,80.000,8609.000,1.000
9.859,10.100,11.238,9.147,12.084,9.214,15.190,12.915,-0.040,1.002,-0.082,0.458,4.028,0.000,80.000,8610.000,1.000
10.654,10.719,13.098,10.259,13.926,9.052,16.198,14.449,-0.041,1.003,-0.079,0.488,3.876,0.061,80.000,8611.000,1.000
11.374,10.894,14.897,10.991,15.932,9.282,17.205,15.193,-0.042,1.004,-0.079,0.397,3.876,0.153,80.000,8612.000,1.000
11.751,11.449,16.074,11.790,17.393,9.904,18.339,16.078,-0.042,1.004,-0.080,0.366,3.876,0.183,80.000,8613.000,1.000
11.183,11.989,15.855,12.369,17.609,10.239,18.924,16.985,-0.041,1.003,-0.082,0.458,3.723,0.183,80.000,8614.000,1.000
9.450,11.408,14.178,11.990,16.769,9.846,18.300,16.950,-0.038,1.004,-0.076,0.397,3.723,0.244,80.000,8615.000,1.000
7.073,9.442,11.752,10.297,15.549,8.962,16.519,15.379,-0.040,1.003,-0.077,0.183,3.662,0.366,80.000,8616.000,1.000
4.850,7.079,9.179,7.636,14.000,7.856,13.962,12.593,-0.041,1.003,-0.077,0.214,3.571,0.336,80.000,8617.000,1.000
3.111,5.280,6.330,4.532,11.302,6.074,10.529,9.053,-0.041,1.002,-0.077,0.244,3.601,0.336,80.000,8618.000,1.000
1.574,3.744,2.847,1.105,6.819,2.706,5.625,4.559,-0.042,1.001,-0.077,0.336,3.510,0.275,80.000,8619.000,1.000
-0.031,1.514,-0.887,-2.648,1.213,-2.446,-0.794,-1.169,-0.040,1.002,-0.079,0.153,3.510,0.061,80.000,8620.000,1.000
-1.420,-1.308,-3.620,-6.102,-3.751,-8.173,-7.447,-7.251,-0.041,1.001,-0.077,0.305,3.448,0.061,80.000,8621.000,1.000
-2.099,-3.172,-4.302,-8.039,-6.616,-12.612,-12.435,-11.711,-0.041,1.001,-0.076,0.458,3.479,0.122,80.000,8622.000,1.000
-2.009,-2.675,-3.060,-7.664,-7.222,-14.641,-14.681,-13.075,-0.041,1.002,-0.079,0.427,3.357,0.153,80.000,8623.000,1.000
-1.498,-0.185,-0.901,-5.428,-6.275,-14.394,-14.486,-11.715,-0.039,1.002,-0.079,0.427,3.387,0.153,80.000,8624.000,1.000
-0.818,2.493,1.236,-2.801,-4.488,-12.673,-12.931,-9.521,-0.039,1.001,-0.079,0.397,3.204,0.092,80.000,8625.000,1.000
0.012,3.903,2.890,-1.220,-2.475,-10.278,-11.085,-8.307,-0.036,1.001,-0.076,0.519,3.204,0.061,80.000,8626.000,1.000
0.884,4.042,3.799,-1.176,-1.060,-7.877,-9.647,-8.558,-0.035,1.000,-0.077,0.549,3.174,-0.031,80.000,8627.000,1.000
1.373,3.622,3.654,-2.259,-1.062,-6.109,-8.974,-9.675,-0.037,1.000,-0.079,0.610,3.204,-0.061,80.000,8628.000,1.000
1.013,2.760,2.368,-3.882,-2.523,-5.357,-9.109,-11.071,-0.038,1.000,-0.076,0.610,3.235,-0.244,80.000,8629.000,1.000
-0.266,0.908,0.375,-5.693,-4.436,-5.378,-9.637,-12.570,-0.037,1.001,-0.078,0.671,3.296,-0.122,80.000,8630.000,1.000
-2.106,-2.022,-1.649,-7.398,-5.579,-5.384,-9.738,-13.857,-0.037,1.001,-0.077,0.671,3.235,-0.153,80.000,8631.000,1.000
-4.068,-4.995,-3.326,-8.533,-5.550,-4.626,-8.657,-14.134,-0.036,1.003,-0.079,0.610,3.204,-0.153,80.000,8632.000,1.000
-5.869,-6.656,-4.672,-8.695,-4.803,-2.876,-6.203,-12.703,-0.037,1.007,-0.080,0.580,3.174,-0.153,80.000,8633.000,1.000
-7.320,-6.713,-5.703,-8.040,-3.822,-0.478,-2.884,-9.860,-0.038,1.005,-0.076,0.702,3.296,-0.153,80.000,8634.000,1.000
-8.226,-6.162,-6.246,-7.347,-2.664,1.905,0.419,-6.860,-0.037,1.004,-0.078,0.580,3.235,-0.153,80.000,8635.000,1.000
-8.412,-5.994,-6.159,-7.287,-1.310,3.692,3.045,-4.747,-0.037,1.003,-0.079,0.580,3.296,-0.244,80.000,8636.000,1.000
-7.840,-6.027,-5.605,-7.666,-0.094,4.664,4.855,-3.354,-0.035,1.005,-0.077,0.580,3.143,-0.244,80.000,8637.000,1.000
-6.771,-5.450,-5.035,-7.702,0.438,4.872,5.911,-1.828,-0.036,1.004,-0.078,0.488,3.113,-0.275,80.000,8638.000,1.000
-5.711,-4.288,-4.854,-7.044,0.077,4.344,6.061,0.010,-0.035,1.006,-0.080,0.519,3.113,-0.336,80.000,8639.000,1.000
-5.033,-3.606,-5.055,-6.161,-0.763,3.086,5.133,1.400,-0.037,1.004,-0.078,0.458,3.204,-0.366,80.000,8640.000,1.000
-4.676,-4.113,-5.249,-5.625,-1.425,1.305,3.457,1.743,-0.036,1.004,-0.075,0.458,3.174,-0.458,80.000,8641.000,1.000
-4.262,-5.107,-5.092,-5.321,-1.643,-0.545,1.878,1.455,-0.036,1.004,-0.075,0.397,3.204,-0.549,80.000,8642.000,1.000
-3.512,-5.264,-4.606,-4.680,-1.662,-2.053,1.101,1.427,-0.037,1.001,-0.075,0.336,3.143,-0.641,80.000,8643.000,1.000
-2.450,-4.289,-4.057,-3.594,-1.730,-3.119,1.118,1.872,-0.039,1.003,-0.076,0.305,3.143,-0.580,80.000,8644.000,1.000
-1.247,-3.240,-3.640,-2.734,-1.719,-3.862,1.391,2.079,-0.036,1.004,-0.078,0.458,3.235,-0.641,80.000,8645.000,1.000
-0.054,-3.069,-3.345,-2.778,-1.380,-4.254,1.540,1.447,-0.036,1.005,-0.076,0.458,3.235,-0.641,80.000,8646.000,1.000
1.014,-3.339,-3.062,-3.537,-0.766,-3.968,1.692,0.399,-0.038,1.006,-0.077,0.305,3.082,-0.885,80.000,8647.000,1.000
1.867,-2.825,-2.678,-4.075,-0.168,-2.695,2.162,-0.065,-0.038,1.005,-0.075,0.397,3.204,-0.946,80.000,8648.000,1.000
2.418,-1.217,-2.116,-3.744,0.298,-0.566,2.957,0.356,-0.038,1.003,-0.076,0.397,3.113,-0.946,80.000,8649.000,1.000
2.364,0.155,-1.587,-3.063,0.589,1.651,3.527,0.679,-0.038,1.003,-0.073,0.366,2.991,-0.793,80.000,8650.000,1.000
1.074,-0.580,-1.901,-3.447,0.124,2.740,2.950,-0.546,-0.039,1.004,-0.074,0.397,3.021,-0.854,80.000,8651.000,1.000
-2.025,-4.165,-4.212,-5.937,-2.264,1.595,0.448,-3.920,-0.036,1.003,-0.078,0.397,3.021,-0.824,80.000,8652.000,1.000
-6.896,-9.792,-9.097,-10.329,-7.312,-2.125,-4.177,-8.886,-0.036,1.003,-0.077,0.458,2.930,-0.916,80.000,8653.000,1.000
-12.637,-16.007,-15.696,-15.446,-14.155,-7.597,-10.360,-14.472,-0.037,1.002,-0.078,0.336,2.960,-0.946,80.000,8654.000,1.000
-17.721,-21.482,-21.836,-19.913,-20.421,-12.978,-16.753,-19.825,-0.040,1.005,-0.076,0.336,2.899,-0.824,80.000,8655.000,1.000
-20.672,-24.985,-25.306,-22.641,-23.809,-16.222,-21.541,-24.010,-0.041,1.004,-0.076,0.336,3.052,-0.793,80.000,8656.000,1.000
-20.827,-25.317,-25.211,-22.964,-23.635,-16.148,-23.237,-25.872,-0.041,1.005,-0.077,0.458,3.021,-0.793,80.000,8657.000,1.000
-18.681,-22.026,-22.207,-20.820,-20.835,-12.982,-21.514,-24.695,-0.039,1.007,-0.076,0.427,3.052,-0.763,80.000,8658.000,1.000
-15.468,-16.206,-17.590,-16.934,-16.671,-7.930,-17.277,-20.948,-0.041,1.005,-0.074,0.488,2.991,-0.702,80.000,8659.000,1.000
-12.339,-10.094,-12.424,-12.599,-11.843,-2.274,-11.887,-16.058,-0.041,1.004,-0.075,0.549,2.991,-0.702,80.000,8660.000,1.000
-9.931,-5.643,-7.584,-9.059,-6.918,3.011,-6.483,-11.376,-0.039,1.003,-0.072,0.488,2.960,-0.641,80.000,8661.000,1.000
-8.538,-3.483,-4.166,-6.953,-3.026,7.044,-1.891,-7.443,-0.040,0.999,-0.074,0.549,2.930,-0.610,80.000,8662.000,1.000
-8.380,-3.264,-3.254,-6.285,-1.487,8.936,1.215,-4.251,-0.042,0.998,-0.078,0.519,2.899,-0.610,80.000,8663.000,1.000
-9.484,-4.673,-5.105,-6.810,-2.672,8.123,2.377,-1.950,-0.041,0.999,-0.078,0.580,2.838,-0.702,80.000,8664.000,1.000
-11.283,-7.530,-8.540,-8.112,-5.382,4.981,1.772,-0.797,-0.040,1.000,-0.077,0.671,2.777,-0.671,80.000,8665.000,1.000
-12.547,-10.874,-11.361,-9.299,-7.549,0.986,0.497,-0.319,-0.043,1.001,-0.074,0.671,2.838,-0.702,80.000,8666.000,1.000
-12.022,-12.745,-11.716,-9.075,-7.687,-2.088,0.037,0.887,-0.040,1.005,-0.073,0.732,2.838,-0.702,80.000,8667.000,1.000
-9.308,-11.557,-9.175,-6.554,-5.672,-3.292,1.216,3.983,-0.039,1.007,-0.073,0.641,2.838,-0.641,80.000,8668.000,1.000
-5.142,-7.720,-4.705,-2.179,-2.367,-2.935,3.582,8.446,-0.037,1.007,-0.074,0.671,2.716,-0.580,80.000,8669.000,1.000
-0.862,-3.455,0.132,2.349,1.154,-2.037,5.862,12.220,-0.036,1.008,-0.076,0.580,2.777,-0.488,80.000,8670.000,1.000
2.405,-0.723,3.998,5.343,4.015,-1.337,7.058,13.563,-0.037,1.006,-0.076,0.519,2.838,-0.519,80.000,8671.000,1.000
4.142,0.390,6.154,6.316,5.541,-0.883,7.027,12.482,-0.037,1.004,-0.079,0.519,2.869,-0.488,80.000,8672.000,1.000
4.412,1.034,6.451,5.839,5.300,-0.464,6.053,10.141,-0.037,1.003,-0.079,0.458,2.960,-0.305,80.000,8673.000,1.000
3.745,1.829,5.335,4.592,3.479,-0.127,4.255,7.317,-0.036,1.004,-0.078,0.488,3.174,-0.244,80.000,8674.000,1.000
2.914,2.334,3.750,2.873,1.043,-0.086,1.655,3.973,-0.034,1.004,-0.080,0.519,3.265,-0.153,80.000,8675.000,1.000
2.462,2.115,2.626,0.911,-0.905,-0.353,-1.423,0.105,-0.034,1.002,-0.077,0.610,3.418,-0.092,80.000,8676.000,1.000
2.334,1.609,2.204,-0.810,-2.055,-0.737,-4.434,-3.667,-0.036,1.004,-0.081,0.580,3.479,0.031,80.000,8677.000,1.000
2.078,1.518,1.926,-1.839,-3.035,-1.245,-7.154,-6.704,-0.035,1.001,-0.078,0.641,3.571,0.061,80.000,8678.000,1.000
1.412,1.680,1.133,-2.268,-4.492,-2.133,-9.808,-9.156,-0.031,1.000,-0.080,0.488,3.784,0.000,80.000,8679.000,1.000
0.543,1.187,-0.211,-2.651,-6.219,-3.400,-12.449,-11.698,-0.032,1.002,-0.080,0.580,3.906,0.153,80.000,8680.000,1.000
-0.070,-0.335,-1.568,-3.375,-7.417,-4.478,-14.466,-14.462,-0.033,1.002,-0.082,0.580,3.937,0.183,80.000,8681.000,1.000
-0.162,-1.937,-2.381,-4.158,-7.605,-4.541,-14.903,-16.542,-0.035,1.002,-0.078,0.580,4.181,0.183,80.000,8682.000,1.000
0.217,-2.165,-2.383,-4.273,-6.883,-3.100,-13.244,-16.752,-0.040,1.004,-0.079,0.519,4.272,0.153,80.000,8683.000,1.000
1.000,-0.586,-1.515,-3.306,-5.442,-0.358,-9.864,-14.846,-0.041,1.004,-0.077,0.610,4.242,0.092,80.000,8684.000,1.000
2.343,1.903,0.267,-1.519,-3.168,2.996,-5.680,-11.716,-0.042,1.007,-0.078,0.397,4.272,-0.031,80.000,8685.000,1.000
4.495,4.376,3.048,0.668,0.144,6.315,-1.369,-8.242,-0.042,1.006,-0.078,0.336,4.272,-0.183,80.000,8686.000,1.000
7.371,6.923,6.661,3.240,4.246,9.248,2.940,-4.365,-0.041,1.007,-0.077,0.214,4.303,-0.275,80.000,8687.000,1.000
10.203,9.893,10.268,6.221,8.192,11.460,7.106,0.258,-0.041,1.010,-0.078,0.092,4.395,-0.458,80.000,8688.000,1.000
11.768,12.441,12.538,8.924,10.802,12.340,10.395,4.984,-0.040,1.011,-0.079,-0.031,4.395,-0.580,80.000,8689.000,1.000
11.240,12.723,12.534,10.126,11.445,11.343,11.854,8.286,-0.040,1.012,-0.075,-0.183,4.272,-0.641,80.000,8690.000,1.000
8.922,9.897,10.485,9.270,10.392,8.742,11.336,9.364,-0.040,1.012,-0.076,-0.336,4.425,-0.610,80.000,8691.000,1.000
6.044,5.402,7.602,7.259,8.457,5.724,9.820,9.192,-0.039,1.010,-0.075,-0.488,4.395,-0.702,80.000,8692.000,1.000
3.860,1.733,5.181,5.744,6.441,3.511,8.552,9.525,-0.038,1.010,-0.075,-0.580,4.456,-0.671,80.000,8693.000,1.000
2.950,0.202,4.007,5.673,5.040,2.558,8.099,11.093,-0.038,1.009,-0.074,-0.702,4.456,-0.732,80.000,8694.000,1.000
3.224,0.350,4.357,6.755,4.935,2.703,8.426,13.234,-0.038,1.009,-0.073,-0.824,4.517,-0.732,80.000,8695.000,1.000
4.339,1.351,6.129,8.204,6.492,3.767,9.542,15.153,-0.038,1.008,-0.075,-0.793,4.456,-0.732,80.000,8696.000,1.000
5.984,3.219,8.744,9.631,9.207,5.633,11.586,16.910,-0.038,1.008,-0.074,-0.977,4.486,-0.732,80.000,8697.000,1.000
7.776,6.146,11.112,10.939,11.679,7.781,14.135,18.774,-0.039,1.005,-0.072,-1.038,4.578,-0.580,80.000,8698.000,1.000
9.117,9.119,12.061,11.638,12.445,9.123,15.799,19.956,-0.039,1.006,-0.073,-1.099,4.486,-0.549,80.000,8699.000,1.000
9.396,10.133,11.015,10.794,10.936,8.581,14.897,18.731,-0.038,1.004,-0.072,-1.068,4.608,-0.488,80.000,8700.000,1.000
8.391,8.077,8.229,7.922,7.592,5.882,10.750,14.129,-0.040,1.004,-0.070,-1.099,4.608,-0.519,80.000,8701.000,1.000
6.411,3.986,4.437,3.742,3.247,1.755,4.267,7.208,-0.041,1.001,-0.069,-1.099,4.517,-0.488,80.000,8702.000,1.000
3.991,-0.044,0.346,-0.313,-1.407,-2.717,-2.854,0.242,-0.041,1.000,-0.070,-1.007,4.425,-0.519,80.000,8703.000,1.000
1.548,-2.913,-3.482,-3.312,-5.761,-6.835,-9.348,-5.201,-0.042,0.998,-0.068,-0.977,4.364,-0.427,80.000,8704.000,1.000
-0.535,-4.976,-6.407,-5.254,-9.021,-10.251,-14.576,-8.954,-0.044,0.996,-0.067,-0.793,4.364,-0.427,80.000,8705.000,1.000
-1.670,-6.540,-7.665,-6.325,-10.374,-12.400,-17.851,-11.172,-0.044,0.997,-0.067,-0.549,4.303,-0.366,80.000,8706.000,1.000
-1.309,-6.732,-6.830,-6.203,-9.549,-12.427,-18.268,-11.368,-0.044,0.995,-0.066,-0.458,4.242,-0.397,80.000,8707.000,1.000
0.468,-4.547,-4.373,-4.498,-7.167,-10.025,-15.628,-9.077,-0.045,0.994,-0.065,-0.244,3.906,-0.397,80.000,8708.000,1.000
2.819,-0.683,-1.547,-1.695,-4.354,-6.146,-11.206,-5.196,-0.045,0.994,-0.064,-0.153,3.784,-0.427,80.000,8709.000,1.000
4.742,2.629,0.527,0.857,-1.934,-2.389,-7.018,-1.790,-0.045,0.995,-0.068,-0.061,3.693,-0.488,80.000,8710.000,1.000
5.727,3.818,1.582,2.085,-0.072,0.288,-4.250,-0.321,-0.046,0.995,-0.067,0.122,3.571,-0.580,80.000,8711.000,1.000
5.812,3.375,1.909,2.021,1.236,1.932,-2.699,-0.505,-0.047,0.997,-0.065,0.244,3.418,-0.732,80.000,8712.000,1.000
5.223,2.795,1.659,1.418,1.729,2.881,-1.637,-1.067,-0.045,0.997,-0.067,0.305,3.235,-0.702,80.000,8713.000,1.000
4.152,2.677,0.798,0.839,1.329,3.242,-0.708,-1.171,-0.044,0.998,-0.065,0.336,3.052,-0.763,80.000,8714.000,1.000
2.845,2.459,-0.349,0.421,0.715,3.143,0.145,-0.765,-0.044,0.999,-0.064,0.427,2.960,-0.916,80.000,8715.000,1.000
1.723,1.788,-1.006,0.328,0.929,3.037,1.206,0.182,-0.043,1.000,-0.066,0.641,2.808,-0.854,80.000,8716.000,1.000
1.169,1.376,-0.634,0.975,2.325,3.384,2.911,2.105,-0.044,1.003,-0.066,0.763,2.808,-1.007,80.000,8717.000,1.000
1.157,2.005,0.424,2.538,4.156,4.020,5.180,5.158,-0.044,1.002,-0.066,0.824,2.838,-1.007,80.000,8718.000,1.000
1.297,3.129,1.252,4.468,5.333,4.118,7.183,8.485,-0.044,1.003,-0.065,0.824,2.625,-1.007,80.000,8719.000,1.000
1.373,3.303,1.412,5.879,5.541,3.044,8.086,10.782,-0.042,1.002,-0.066,0.854,2.563,-0.885,80.000,8720.000,1.000
1.678,2.107,1.454,6.479,5.425,1.113,7.922,11.614,-0.042,1.004,-0.066,0.854,2.502,-0.946,80.000,8721.000,1.000
2.610,0.979,2.200,6.856,5.707,-0.699,7.489,11.831,-0.041,1.004,-0.068,0.916,2.319,-0.885,80.000,8722.000,1.000
4.006,1.647,3.683,7.676,6.389,-1.750,7.414,12.482,-0.043,1.003,-0.068,1.068,2.197,-0.916,80.000,8723.000,1.000
5.077,3.945,5.046,8.725,6.915,-2.289,7.481,13.483,-0.043,1.002,-0.068,1.068,2.136,-0.824,80.000,8724.000,1.000
5.081,5.793,5.420,8.979,6.864,-3.007,6.998,13.665,-0.043,1.002,-0.068,1.160,2.075,-0.793,80.000,8725.000,1.000
3.871,5.345,4.582,7.625,6.111,-4.309,5.553,12.083,-0.041,1.003,-0.070,1.221,2.106,-0.763,80.000,8726.000,1.000
1.752,2.675,2.742,4.809,4.418,-6.195,3.182,8.918,-0.039,1.003,-0.068,1.221,2.075,-0.732,80.000,8727.000,1.000
-0.908,-0.785,0.118,1.382,1.388,-8.603,-0.018,5.005,-0.039,1.002,-0.069,1.373,2.075,-0.671,80.000,8728.000,1.000
-3.731,-3.963,-2.947,-1.881,-2.862,-11.509,-4.044,0.814,-0.040,1.003,-0.067,1.495,1.923,-0.702,80.000,8729.000,1.000
-6.130,-6.694,-5.638,-4.597,-7.223,-14.575,-8.590,-3.635,-0.040,1.004,-0.068,1.465,2.014,-0.641,80.000,8730.000,1.000
-7.367,-8.761,-6.892,-6.419,-10.194,-16.922,-12.666,-7.905,-0.041,1.005,-0.069,1.373,1.953,-0.671,80.000,8731.000,1.000
-7.000,-9.202,-6.189,-6.775,-11.035,-17.591,-14.989,-10.768,-0.041,1.005,-0.069,1.465,1.892,-0.702,80.000,8732.000,1.000
-5.267,-7.160,-4.006,-5.312,-10.175,-16.298,-14.936,-11.110,-0.041,1.005,-0.070,1.556,2.014,-0.641,80.000,8733.000,1.000
-2.973,-3.292,-1.413,-2.595,-8.527,-13.635,-13.073,-9.181,-0.040,1.005,-0.070,1.495,1.984,-0.763,80.000,8734.000,1.000
-1.091,0.198,0.563,-0.157,-6.805,-10.602,-10.738,-6.662,-0.040,1.005,-0.075,1.556,1.892,-0.763,80.000,8735.000,1.000
-0.418,1.308,1.225,0.454,-5.553,-7.984,-9.150,-5.368,-0.039,1.003,-0.072,1.648,1.862,-0.824,80.000,8736.000,1.000
-1.340,-0.117,0.209,-1.190,-5.397,-6.111,-8.858,-5.920,-0.038,1.004,-0.069,1.617,1.953,-0.793,80.000,8737.000,1.000
-3.756,-2.778,-2.498,-4.232,-6.848,-5.116,-9.875,-7.760,-0.040,1.004,-0.073,1.617,2.014,-0.885,80.000,8738.000,1.000
-7.066,-5.564,-6.316,-7.361,-9.643,-5.062,-11.900,-10.115,-0.040,1.004,-0.071,1.648,1.892,-0.824,80.000,8739.000,1.000
-10.225,-8.171,-9.948,-9.575,-12.463,-5.630,-14.173,-12.491,-0.041,1.004,-0.069,1.648,2.014,-0.916,80.000,8740.000,1.000
-12.057,-10.255,-11.931,-10.325,-13.753,-6.004,-15.524,-14.304,-0.041,1.003,-0.071,1.648,2.045,-0.916,80.000,8741.000,1.000
-11.786,-10.772,-11.523,-9.343,-12.901,-5.378,-14.941,-14.607,-0.040,1.003,-0.071,1.648,1.923,-0.854,80.000,8742.000,1.000
-9.360,-8.750,-9.019,-6.689,-10.479,-3.603,-12.251,-12.698,-0.042,1.003,-0.071,1.556,2.075,-0.977,80.000,8743.000,1.000
-5.342,-4.606,-5.246,-2.978,-7.361,-1.282,-8.247,-8.973,-0.039,1.002,-0.072,1.678,2.106,-1.007,80.000,8744.000,1.000
-0.588,-0.165,-0.973,0.729,-3.948,0.807,-4.077,-4.769,-0.037,1.003,-0.071,1.709,2.136,-0.977,80.000,8745.000,1.000
3.922,2.849,3.124,3.499,-0.354,2.335,-0.451,-1.160,-0.038,1.002,-0.072,1.801,2.228,-0.946,80.000,8746.000,1.000
7.207,4.164,6.229,5.112,3.024,3.477,2.623,1.942,-0.036,1.002,-0.072,1.709,2.167,-0.854,80.000,8747.000,1.000
8.546,4.625,7.505,6.012,5.566,4.526,5.443,5.335,-0.036,1.004,-0.074,1.587,2.197,-0.763,80.000,8748.000,1.000
7.847,4.778,6.664,6.678,7.088,5.604,8.114,9.291,-0.036,1.006,-0.073,1.678,2.350,-0.763,80.000,8749.000,1.000
5.895,4.432,4.494,7.318,8.248,6.825,10.636,13.216,-0.037,1.006,-0.073,1.648,2.533,-0.702,80.000,8750.000,1.000
4.002,3.677,2.602,8.171,10.062,8.561,13.283,16.565,-0.037,1.005,-0.074,1.617,2.655,-0.671,80.000,8751.000,1.000
3.077,3.483,2.242,9.609,12.796,11.136,16.356,19.470,-0.036,1.002,-0.076,1.556,2.533,-0.641,80.000,8752.000,1.000
3.021,4.659,3.315,11.587,15.440,14.102,19.378,22.035,-0.039,1.003,-0.076,1.526,2.716,-0.549,80.000,8753.000,1.000
3.193,6.562,4.675,13.278,16.554,16.206,20.967,23.452,-0.041,1.003,-0.075,1.526,2.716,-0.519,80.000,8754.000,1.000
3.350,7.579,5.381,13.680,15.651,16.491,19.992,22.542,-0.039,1.001,-0.074,1.617,2.747,-0.519,80.000,8755.000,1.000
3.891,6.979,5.448,12.589,13.496,15.295,16.781,19.222,-0.040,1.002,-0.076,1.617,2.808,-0.580,80.000,8756.000,1.000
5.218,5.875,5.453,10.821,11.185,13.961,12.936,15.008,-0.042,1.001,-0.074,1.587,2.716,-0.610,80.000,8757.000,1.000
7.022,5.925,5.666,9.368,9.216,13.531,9.917,11.731,-0.042,1.001,-0.075,1.587,2.716,-0.732,80.000,8758.000,1.000
8.352,7.290,5.763,8.405,7.509,13.915,7.951,9.847,-0.043,1.002,-0.076,1.495,2.716,-0.885,80.000,8759.000,1.000
8.445,8.461,5.311,7.280,5.950,14.299,6.347,8.269,-0.044,1.003,-0.074,1.617,2.686,-0.916,80.000,8760.000,1.000
7.286,8.013,4.147,5.349,4.454,13.932,4.415,5.747,-0.044,1.002,-0.074,1.556,2.563,-1.007,80.000,8761.000,1.000
5.249,5.901,2.143,2.596,2.528,12.286,1.814,2.056,-0.043,1.006,-0.075,1.617,2.472,-1.068,80.000,8762.000,1.000
2.549,2.944,-0.927,-0.498,-0.573,8.964,-1.578,-2.142,-0.045,1.003,-0.077,1.465,2.411,-1.068,80.000,8763.000,1.000
-0.625,-0.389,-4.891,-3.425,-4.890,4.011,-5.652,-6.224,-0.043,1.005,-0.076,1.495,2.380,-1.129,80.000,8764.000,1.000
-3.669,-4.146,-8.733,-5.841,-9.232,-1.697,-9.906,-9.999,-0.042,1.003,-0.073,1.373,2.350,-1.160,80.000,8765.000,1.000
-5.653,-7.984,-11.052,-7.364,-11.986,-6.638,-13.473,-13.228,-0.042,1.005,-0.077,1.434,2.411,-1.007,80.000,8766.000,1.000
-6.022,-10.653,-11.147,-7.486,-12.467,-9.432,-15.537,-15.268,-0.041,1.006,-0.074,1.373,2.350,-1.068,80.000,8767.000,1.000
-5.148,-10.942,-9.560,-6.011,-11.346,-9.657,-15.925,-15.618,-0.041,1.006,-0.077,1.343,2.380,-0.977,80.000,8768.000,1.000
-3.960,-9.028,-7.418,-3.475,-9.715,-7.967,-15.242,-14.696,-0.040,1.006,-0.078,1.404,2.350,-0.977,80.000,8769.000,1.000
-3.017,-6.357,-5.308,-0.831,-7.957,-5.391,-14.204,-13.580,-0.040,1.006,-0.077,1.282,2.472,-0.977,80.000,8770.000,1.000
-2.119,-4.123,-3.033,1.335,-5.752,-2.570,-12.870,-12.830,-0.040,1.006,-0.077,1.160,2.441,-0.916,80.000,8771.000,1.000
-0.871,-2.295,-0.424,3.133,-3.029,0.201,-10.758,-11.847,-0.041,1.004,-0.075,1.007,2.533,-0.885,80.000,8772.000,1.000
0.627,-0.388,1.980,4.903,-0.466,2.427,-7.721,-9.686,-0.040,1.006,-0.073,0.946,2.655,-0.732,80.000,8773.000,1.000
1.825,1.240,3.336,6.559,1.171,3.335,-4.397,-6.276,-0.040,1.004,-0.074,0.854,2.594,-0.641,80.000,8774.000,1.000
2.370,1.539,3.495,7.666,2.014,2.666,-1.477,-2.399,-0.043,1.006,-0.074,0.824,2.655,-0.519,80.000,8775.000,1.000
2.474,0.344,3.333,8.210,3.148,1.322,1.299,1.569,-0.042,1.007,-0.073,0.702,2.625,-0.580,80.000,8776.000,1.000
2.600,-0.907,3.899,8.894,5.487,0.743,4.853,6.194,-0.042,1.005,-0.076,0.580,2.716,-0.488,80.000,8777.000,1.000
2.965,-0.541,5.373,10.426,8.811,1.549,9.439,11.952,-0.043,1.006,-0.075,0.488,2.655,-0.519,80.000,8778.000,1.000
3.509,1.569,7.177,12.720,12.217,3.172,14.136,18.105,-0.045,1.005,-0.069,0.519,2.655,-0.580,80.000,8779.000,1.000
4.191,4.015,8.862,14.984,15.154,4.739,17.732,23.037,-0.044,1.004,-0.073,0.366,2.625,-0.519,80.000,8780.000,1.000
5.116,5.529,10.444,16.480,17.524,5.927,19.709,25.598,-0.045,1.004,-0.072,0.275,2.533,-0.610,80.000,8781.000,1.000
6.374,6.307,11.996,17.109,19.074,6.949,20.331,25.947,-0.043,1.003,-0.072,0.183,2.441,-0.549,80.000,8782.000,1.000
7.864,7.472,13.285,17.246,19.263,8.030,20.001,24.981,-0.044,1.002,-0.073,0.305,2.411,-0.671,80.000,8783.000,1.000
9.214,9.297,13.871,16.998,17.788,8.957,18.629,23.016,-0.043,1.001,-0.073,0.427,2.380,-0.732,80.000,8784.000,1.000
9.841,10.480,13.356,15.780,14.877,9.063,15.651,19.381,-0.043,1.001,-0.070,0.336,2.350,-0.824,80.000,8785.000,1.000
9.252,9.547,11.568,12.922,11.009,7.783,10.814,13.594,-0.042,1.000,-0.072,0.397,2.350,-0.824,80.000,8786.000,1.000
7.385,6.567,8.575,8.622,6.501,5.178,4.791,6.595,-0.042,1.003,-0.072,0.458,2.289,-1.007,80.000,8787.000,1.000
4.542,2.897,4.568,3.901,1.477,1.758,-1.235,0.213,-0.040,1.001,-0.072,0.458,2.167,-0.885,80.000,8788.000,1.000
1.138,-0.483,-0.066,-0.363,-3.690,-1.963,-6.377,-4.463,-0.040,0.999,-0.072,0.519,2.228,-0.977,80.000,8789.000,1.000
-2.310,-3.675,-4.548,-4.000,-8.089,-5.487,-10.196,-7.684,-0.040,1.000,-0.075,0.549,2.350,-0.946,80.000,8790.000,1.000
-5.206,-6.957,-7.941,-7.157,-10.795,-8.206,-12.387,-10.108,-0.041,1.001,-0.072,0.549,2.350,-0.946,80.000,8791.000,1.000
-7.240,-9.840,-9.810,-9.724,-11.739,-9.708,-12.795,-11.829,-0.040,1.003,-0.071,0.549,2.441,-0.916,80.000,8792.000,1.000
-8.626,-11.503,-10.532,-11.380,-11.785,-10.209,-11.832,-12.603,-0.039,1.004,-0.073,0.610,2.502,-0.946,80.000,8793.000,1.000
-9.754,-11.986,-10.784,-12.043,-11.818,-10.459,-10.552,-12.701,-0.040,1.004,-0.072,0.580,2.319,-0.946,80.000,8794.000,1.000
-10.591,-12.269,-10.784,-11.989,-11.928,-11.045,-10.007,-13.002,-0.042,1.004,-0.070,0.641,2.411,-0.946,80.000,8795.000,1.000
-10.547,-12.867,-10.147,-11.425,-11.568,-11.798,-10.426,-14.075,-0.042,1.003,-0.071,0.702,2.319,-0.977,80.000,8796.000,1.000
-9.048,-12.854,-8.483,-10.171,-10.372,-11.938,-11.128,-15.435,-0.041,1.003,-0.074,0.732,2.411,-0.793,80.000,8797.000,1.000
-6.315,-10.958,-6.108,-8.097,-8.702,-10.953,-11.407,-16.170,-0.042,1.004,-0.075,0.824,2.441,-0.854,80.000,8798.000,1.000
-3.432,-7.455,-3.974,-5.732,-7.352,-9.263,-11.376,-16.215,-0.042,1.005,-0.073,0.916,2.472,-0.916,80.000,8799.000,1.000
-1.445,-4.190,-2.729,-3.943,-6.669,-7.790,-11.608,-16.352,-0.044,1.004,-0.073,0.946,2.533,-0.793,80.000,8800.000,1.000
-0.457,-2.524,-1.992,-2.906,-6.148,-6.939,-12.033,-16.767,-0.045,1.004,-0.070,1.038,2.472,-0.885,80.000,8801.000,1.000
0.282,-1.804,-0.786,-1.733,-4.998,-6.283,-11.594,-16.219,-0.046,1.002,-0.068,1.038,2.472,-0.763,80.000,8802.000,1.000
1.502,-0.293,1.424,0.620,-2.903,-5.246,-9.205,-13.161,-0.045,1.002,-0.074,1.160,2.533,-0.854,80.000,8803.000,1.000
3.310,2.729,4.415,4.226,-0.048,-3.723,-4.828,-7.507,-0.045,1.002,-0.071,1.160,2.533,-0.732,80.000,8804.000,1.000
5.379,6.349,7.720,8.135,3.379,-1.872,0.610,-0.836,-0.044,1.001,-0.073,1.190,2.533,-0.641,80.000,8805.000,1.000
7.286,9.273,10.909,11.257,7.201,0.262,6.069,5.091,-0.045,1.003,-0.075,1.221,2.533,-0.702,80.000,8806.000,1.000
8.494,11.045,13.298,13.065,10.736,2.557,10.833,9.614,-0.043,1.003,-0.072,1.282,2.533,-0.671,80.000,8807.000,1.000
8.405,11.917,14.037,13.624,12.901,4.544,14.415,13.020,-0.042,1.005,-0.075,1.343,2.594,-0.702,80.000,8808.000,1.000
6.861,11.986,12.876,13.250,13.235,5.739,16.571,15.635,-0.043,1.004,-0.073,1.343,2.594,-0.610,80.000,8809.000,1.000
4.511,11.032,10.633,12.246,12.506,6.211,17.499,17.423,-0.043,1.004,-0.071,1.465,2.594,-0.610,80.000,8810.000,1.000
2.510,9.284,8.611,10.885,11.912,6.639,17.796,18.364,-0.042,1.004,-0.072,1.343,2.502,-0.519,80.000,8811.000,1.000
1.765,7.907,7.588,9.537,11.848,7.748,18.038,18.833,-0.042,1.003,-0.074,1.373,2.472,-0.488,80.000,8812.000,1.000
2.364,8.103,7.386,8.518,11.686,9.597,18.244,19.190,-0.044,1.004,-0.073,1.282,2.502,-0.488,80.000,8813.000,1.000
3.613,9.604,7.290,7.663,10.620,11.354,17.667,18.977,-0.042,1.004,-0.075,1.221,2.502,-0.458,80.000,8814.000,1.000
4.580,10.573,6.730,6.312,8.447,11.834,15.327,16.999,-0.043,1.004,-0.072,1.221,2.502,-0.397,80.000,8815.000,1.000
4.615,9.277,5.472,3.908,5.412,10.287,10.885,12.534,-0.041,1.004,-0.077,1.221,2.655,-0.458,80.000,8816.000,1.000
3.433,5.674,3.352,0.566,1.623,6.781,5.054,6.342,-0.042,1.003,-0.073,1.190,2.747,-0.427,80.000,8817.000,1.000
0.991,1.210,0.251,-2.979,-2.836,2.107,-0.791,0.259,-0.043,1.003,-0.073,1.221,2.747,-0.458,80.000,8818.000,1.000
-2.403,-2.671,-3.459,-5.908,-7.182,-2.470,-5.312,-4.162,-0.042,1.003,-0.073,1.221,2.655,-0.366,80.000,8819.000,1.000
-5.833,-5.372,-6.611,-7.707,-9.758,-5.450,-7.520,-6.398,-0.043,1.005,-0.074,1.129,2.716,-0.397,80.000,8820.000,1.000
-8.079,-6.658,-7.835,-8.192,-9.143,-5.646,-6.860,-6.615,-0.042,1.005,-0.072,1.129,2.747,-0.336,80.000,8821.000,1.000
-8.529,-6.151,-6.755,-7.490,-5.577,-3.011,-3.601,-5.191,-0.042,1.005,-0.076,1.038,2.686,-0.336,80.000,8822.000,1.000
-7.710,-3.815,-4.415,-6.072,-1.020,1.075,0.844,-2.833,-0.043,1.004,-0.074,0.977,2.838,-0.305,80.000,8823.000,1.000
-6.717,-0.681,-2.321,-4.696,2.376,4.570,4.396,-0.831,-0.042,1.004,-0.072,1.007,2.747,-0.427,80.000,8824.000,1.000
-6.214,1.542,-1.198,-4.110,3.728,6.021,5.430,-0.646,-0.042,1.003,-0.074,0.946,2.777,-0.397,80.000,8825.000,1.000
-5.989,1.979,-0.705,-4.523,3.478,5.336,3.719,-2.786,-0.042,1.002,-0.074,0.977,2.869,-0.366,80.000,8826.000,1.000
-5.373,1.478,-0.177,-5.343,2.390,3.505,0.383,-6.198,-0.040,1.001,-0.075,0.946,2.930,-0.336,80.000,8827.000,1.000
-3.974,1.605,0.581,-5.641,0.869,1.619,-3.056,-9.086,-0.039,1.002,-0.079,0.916,3.113,-0.336,80.000,8828.000,1.000
-1.894,2.899,1.415,-4.883,-0.662,0.260,-5.516,-10.263,-0.042,1.004,-0.078,0.854,3.052,-0.366,80.000,8829.000,1.000
0.641,4.591,2.511,-3.086,-1.212,-0.346,-6.413,-9.569,-0.041,1.005,-0.076,0.824,2.991,-0.427,80.000,8830.000,1.000
3.517,5.856,4.410,-0.475,0.241,-0.110,-5.415,-7.194,-0.040,1.003,-0.075,0.793,2.960,-0.519,80.000,8831.000,1.000
6.419,6.726,7.121,2.697,3.547,0.733,-2.554,-3.172,-0.042,1.002,-0.076,0.732,3.052,-0.580,80.000,8832.000,1.000
8.568,7.612,9.674,5.977,7.240,1.567,1.562,2.279,-0.040,1.002,-0.075,0.671,3.082,-0.549,80.000,8833.000,1.000
9.236,8.485,11.036,8.716,9.994,2.018,6.083,8.333,-0.039,1.002,-0.075,0.793,3.113,-0.702,80.000,8834.000,1.000
8.440,8.951,11.211,10.372,11.903,2.560,10.508,13.833,-0.042,1.005,-0.076,0.763,3.174,-0.702,80.000,8835.000,1.000
6.785,8.972,10.939,10.689,13.801,4.174,14.668,17.973,-0.040,1.004,-0.072,0.641,3.174,-0.610,80.000,8836.000,1.000
4.697,9.098,10.466,9.622,15.654,7.326,18.195,20.598,-0.042,1.005,-0.073,0.580,3.265,-0.641,80.000,8837.000,1.000
2.017,9.736,9.101,7.188,16.231,11.342,20.293,21.753,-0.044,1.006,-0.073,0.610,3.265,-0.641,80.000,8838.000,1.000
-1.634,10.277,6.074,3.405,14.419,14.803,20.122,21.093,-0.043,1.004,-0.074,0.519,3.235,-0.671,80.000,8839.000,1.000
-6.163,9.463,1.613,-1.480,10.537,16.650,17.550,18.151,-0.044,1.006,-0.074,0.366,3.235,-0.549,80.000,8840.000,1.000
-10.728,6.856,-2.989,-6.610,6.154,16.922,13.574,13.350,-0.045,1.006,-0.073,0.427,3.235,-0.519,80.000,8841.000,1.000
-14.210,3.567,-6.342,-10.602,2.743,16.414,9.844,8.357,-0.043,1.005,-0.075,0.366,3.113,-0.580,80.000,8842.000,1.000
-15.940,1.099,-7.864,-12.297,0.767,15.781,7.600,5.035,-0.044,1.004,-0.073,0.397,3.021,-0.641,80.000,8843.000,1.000
-15.970,-0.335,-7.788,-11.557,-0.014,15.037,6.973,3.989,-0.044,1.004,-0.072,0.305,3.021,-0.580,80.000,8844.000,1.000
-14.814,-1.869,-6.670,-9.390,0.054,13.721,7.132,4.189,-0.045,1.003,-0.071,0.275,3.082,-0.610,80.000,8845.000,1.000
-13.046,-4.368,-5.128,-7.213,0.538,11.420,7.030,4.053,-0.047,1.004,-0.073,0.275,3.021,-0.549,80.000,8846.000,1.000
-11.074,-7.137,-3.822,-5.828,0.751,8.249,6.156,2.875,-0.046,1.003,-0.072,0.397,2.960,-0.519,80.000,8847.000,1.000
-9.223,-8.542,-3.296,-5.120,0.089,4.861,4.632,1.058,-0.046,1.002,-0.072,0.427,2.899,-0.488,80.000,8848.000,1.000
-7.784,-7.812,-3.607,-4.612,-1.307,2.069,2.844,-0.826,-0.045,1.002,-0.071,0.488,2.869,-0.458,80.000,8849.000,1.000
-6.785,-5.757,-4.117,-3.982,-2.375,0.549,1.261,-2.598,-0.045,1.002,-0.070,0.397,2.899,-0.519,80.000,8850.000,1.000
-5.878,-3.606,-3.911,-3.018,-1.981,0.657,0.355,-4.120,-0.045,1.001,-0.074,0.488,2.930,-0.519,80.000,8851.000,1.000
-4.704,-1.658,-2.648,-1.523,-0.144,2.048,0.180,-5.002,-0.045,1.001,-0.072,0.580,2.777,-0.336,80.000,8852.000,1.000
-3.307,0.491,-0.949,0.432,1.759,3.478,-0.006,-5.054,-0.045,1.001,-0.073,0.549,2.655,-0.366,80.000,8853.000,1.000
-2.124,2.673,0.181,2.226,2.194,3.382,-1.365,-4.894,-0.043,1.000,-0.074,0.519,2.686,-0.366,80.000,8854.000,1.000
-1.592,3.834,0.249,2.961,0.774,0.956,-4.530,-5.664,-0.043,1.001,-0.072,0.671,2.594,-0.366,80.000,8855.000,1.000
-1.784,3.250,-0.442,2.207,-1.706,-3.284,-8.938,-7.848,-0.044,0.999,-0.071,0.610,2.686,-0.427,80.000,8856.000,1.000
-2.410,1.593,-1.388,0.412,-4.349,-7.977,-13.183,-10.580,-0.045,1.001,-0.072,0.610,2.686,-0.397,80.000,8857.000,1.000
-3.099,0.186,-2.542,-1.544,-6.904,-11.974,-16.118,-12.447,-0.044,1.001,-0.071,0.732,2.625,-0.366,80.000,8858.000,1.000
-3.553,-0.581,-4.054,-2.996,-9.248,-14.819,-17.435,-12.757,-0.042,1.001,-0.070,0.793,2.655,-0.366,80.000,8859.000,1.000
-3.439,-1.391,-5.462,-3.600,-10.530,-16.258,-17.118,-11.667,-0.042,1.002,-0.070,0.824,2.625,-0.275,80.000,8860.000,1.000
-2.390,-2.595,-5.698,-3.116,-9.532,-15.765,-14.852,-9.368,-0.043,1.003,-0.069,1.007,2.686,-0.336,80.000,8861.000,1.000
-0.233,-3.271,-4.090,-1.374,-5.985,-12.917,-10.361,-5.685,-0.045,1.003,-0.069,1.007,2.563,-0.427,80.000,8862.000,1.000
2.879,-1.994,-0.968,1.536,-1.023,-8.055,-4.098,-0.606,-0.044,1.002,-0.070,0.916,2.563,-0.458,80.000,8863.000,1.000
6.547,1.590,2.774,4.999,3.784,-2.320,2.661,4.975,-0.043,1.005,-0.070,0.854,2.563,-0.458,80.000,8864.000,1.000
10.191,6.197,6.312,7.874,7.472,3.002,8.412,9.339,-0.042,1.005,-0.068,0.946,2.563,-0.397,80.000,8865.000,1.000
12.993,10.004,8.920,8.982,9.676,7.134,12.206,11.077,-0.042,1.005,-0.067,1.038,2.563,-0.427,80.000,8866.000,1.000
13.882,12.035,9.627,7.673,9.920,9.814,13.861,10.062,-0.043,1.004,-0.066,0.946,2.533,-0.458,80.000,8867.000,1.000
11.906,12.151,7.336,3.949,7.423,10.781,13.460,7.110,-0.043,1.004,-0.067,0.946,2.533,-0.641,80.000,8868.000,1.000
7.007,10.143,1.751,-1.676,1.971,9.641,10.982,2.970,-0.041,1.004,-0.069,0.946,2.594,-0.458,80.000,8869.000,1.000
0.476,5.711,-5.783,-8.171,-5.092,6.557,6.793,-1.871,-0.043,1.003,-0.069,0.854,2.533,-0.397,80.000,8870.000,1.000
-5.693,-0.516,-12.797,-14.042,-11.308,2.715,2.146,-6.560,-0.042,1.002,-0.068,0.854,2.594,-0.549,80.000,8871.000,1.000
-10.035,-6.602,-17.326,-17.839,-14.869,-0.451,-1.423,-9.801,-0.042,1.002,-0.072,0.885,2.716,-0.610,80.000,8872.000,1.000
-12.238,-10.498,-18.983,-18.895,-15.749,-2.429,-3.268,-10.808,-0.041,1.004,-0.070,0.885,2.594,-0.519,80.000,8873.000,1.000
-12.681,-11.613,-18.438,-17.569,-14.973,-3.691,-3.913,-10.106,-0.041,1.002,-0.069,1.007,2.655,-0.488,80.000,8874.000,1.000
-11.590,-10.882,-16.171,-14.690,-13.161,-4.724,-4.122,-9.009,-0.040,1.003,-0.067,0.916,2.686,-0.397,80.000,8875.000,1.000
-8.747,-9.201,-12.005,-10.752,-10.144,-5.232,-3.936,-8.254,-0.042,1.002,-0.070,1.007,2.808,-0.275,80.000,8876.000,1.000
-4.019,-6.227,-5.824,-5.736,-5.813,-4.435,-2.767,-7.303,-0.041,1.001,-0.071,0.977,2.838,-0.397,80.000,8877.000,1.000
1.876,-1.291,1.424,0.126,-0.972,-2.233,-0.506,-5.339,-0.041,1.003,-0.070,1.007,2.899,-0.458,80.000,8878.000,1.000
7.211,4.608,7.620,5.506,2.807,0.056,1.638,-2.888,-0.042,1.004,-0.072,0.916,2.838,-0.397,80.000,8879.000,1.000
10.134,8.718,10.664,8.410,4.252,0.570,1.894,-1.765,-0.041,1.003,-0.070,0.977,2.838,-0.336,80.000,8880.000,1.000
9.859,8.908,9.898,7.756,3.305,-1.412,-0.345,-3.129,-0.042,1.000,-0.070,0.946,2.930,-0.336,80.000,8881.000,1.000
6.951,5.662,6.272,4.270,0.882,-4.944,-3.941,-6.126,-0.042,1.003,-0.073,0.916,2.960,-0.336,80.000,8882.000,1.000
2.708,1.371,1.360,-0.262,-1.991,-8.473,-7.152,-8.777,-0.042,1.002,-0.073,0.916,2.899,-0.336,80.000,8883.000,1.000
-1.424,-1.978,-3.398,-4.336,-4.508,-11.021,-8.930,-9.842,-0.043,1.001,-0.069,0.916,2.991,-0.275,80.000,8884.000,1.000
-4.150,-4.040,-6.815,-7.320,-5.936,-12.350,-9.162,-9.520,-0.043,1.001,-0.067,1.099,3.021,-0.366,80.000,8885.000,1.000
-4.726,-5.338,-8.182,-9.120,-5.829,-12.543,-8.183,-8.591,-0.045,1.001,-0.072,1.129,2.991,-0.488,80.000,8886.000,1.000
-3.419,-5.968,-7.728,-9.720,-4.533,-11.766,-6.444,-7.418,-0.044,1.002,-0.070,1.129,3.113,-0.458,80.000,8887.000,1.000
-1.469,-5.536,-6.536,-9.214,-3.106,-10.348,-4.562,-6.033,-0.044,1.003,-0.070,1.099,3.021,-0.427,80.000,8888.000,1.000
-0.305,-4.188,-5.684,-8.089,-2.433,-8.818,-3.308,-4.853,-0.044,1.004,-0.069,1.068,3.021,-0.397,80.000,8889.000,1.000
-0.527,-2.942,-5.448,-7.131,-2.522,-7.608,-3.218,-4.757,-0.045,1.004,-0.072,1.068,3.052,-0.366,80.000,8890.000,1.000
-1.619,-2.689,-5.419,-6.961,-2.868,-6.780,-4.171,-6.236,-0.044,1.002,-0.076,0.977,3.082,-0.519,80.000,8891.000,1.000
-2.762,-3.290,-5.405,-7.747,-3.443,-6.204,-5.519,-8.732,-0.044,1.004,-0.071,1.099,2.991,-0.427,80.000,8892.000,1.000
-3.794,-4.009,-5.900,-9.371,-4.888,-5.879,-6.620,-11.060,-0.043,1.003,-0.071,1.099,2.991,-0.336,80.000,8893.000,1.000
-5.147,-4.606,-7.413,-11.625,-7.446,-5.817,-7.114,-12.378,-0.043,1.003,-0.070,1.068,2.960,-0.458,80.000,8894.000,1.000
-7.076,-5.623,-9.643,-14.204,-10.186,-5.736,-6.814,-12.626,-0.042,1.003,-0.069,1.190,2.991,-0.458,80.000,8895.000,1.000
-9.354,-7.599,-11.750,-16.690,-11.841,-5.248,-5.686,-12.178,-0.043,1.002,-0.072,1.190,2.991,-0.488,80.000,8896.000,1.000
-11.717,-10.319,-13.412,-18.675,-12.274,-4.379,-4.057,-11.315,-0.043,1.002,-0.072,1.251,2.960,-0.519,80.000,8897.000,1.000
-14.265,-13.061,-15.169,-19.978,-12.612,-3.707,-2.643,-10.203,-0.042,1.001,-0.072,1.312,2.838,-0.397,80.000,8898.000,1.000
-17.185,-15.481,-17.566,-20.747,-13.858,-3.862,-2.167,-9.243,-0.042,1.003,-0.069,1.160,2.808,-0.366,80.000,8899.000,1.000
-20.103,-17.737,-20.148,-21.213,-15.652,-4.801,-2.715,-8.953,-0.042,1.004,-0.072,1.190,2.838,-0.336,80.000,8900.000,1.000
-21.983,-19.585,-21.595,-21.250,-16.610,-5.597,-3.446,-9.212,-0.041,1.003,-0.070,1.221,2.869,-0.305,80.000,8901.000,1.000
-21.915,-19.863,-20.939,-20.338,-15.759,-5.102,-3.166,-8.962,-0.041,1.004,-0.069,1.282,2.991,-0.305,80.000,8902.000,1.000
-20.001,-17.501,-18.475,-18.162,-13.417,-2.958,-1.364,-7.152,-0.041,1.004,-0.072,1.282,3.021,-0.336,80.000,8903.000,1.000
-17.255,-13.014,-15.389,-15.208,-10.625,0.046,1.324,-3.982,-0.042,1.004,-0.072,1.312,2.960,-0.275,80.000,8904.000,1.000
-14.695,-8.513,-12.640,-12.575,-8.106,2.540,3.615,-0.930,-0.041,1.004,-0.076,1.221,3.052,-0.214,80.000,8905.000,1.000
-12.658,-5.912,-10.392,-11.058,-5.999,3.493,4.540,0.592,-0.041,1.004,-0.073,1.221,2.899,-0.244,80.000,8906.000,1.000
-10.836,-5.190,-8.287,-10.357,-4.269,2.804,4.072,0.558,-0.042,1.003,-0.072,1.190,2.869,-0.336,80.000,8907.000,1.000
-8.758,-4.674,-5.942,-9.283,-2.878,1.181,2.970,0.209,-0.043,1.003,-0.074,1.160,2.930,-0.397,80.000,8908.000,1.000
-6.163,-3.076,-3.213,-6.883,-1.613,-0.563,1.997,0.622,-0.042,1.004,-0.073,1.129,2.899,-0.336,80.000,8909.000,1.000
-3.064,-0.852,-0.189,-3.314,-0.108,-2.100,1.321,1.697,-0.044,1.004,-0.077,1.129,2.869,-0.275,80.000,8910.000,1.000
0.391,0.752,2.926,0.486,1.809,-3.507,0.727,2.711,-0.044,1.001,-0.072,1.190,2.808,-0.366,80.000,8911.000,1.000
3.941,1.458,5.794,3.723,3.773,-4.881,0.080,3.374,-0.042,1.001,-0.073,1.160,2.838,-0.336,80.000,8912.000,1.000
7.049,1.994,7.807,5.988,4.980,-6.262,-0.684,3.784,-0.041,1.001,-0.073,1.099,2.808,-0.458,80.000,8913.000,1.000
8.997,2.659,8.354,6.905,4.878,-7.690,-1.756,3.671,-0.040,1.003,-0.072,1.068,2.869,-0.427,80.000,8914.000,1.000
9.424,2.769,7.462,6.155,3.830,-8.958,-3.204,2.422,-0.041,1.003,-0.073,1.129,2.808,-0.366,80.000,8915.000,1.000
8.682,1.857,5.995,4.034,2.951,-9.318,-4.497,0.080,-0.040,1.001,-0.072,1.099,2.838,-0.519,80.000,8916.000,1.000
7.541,0.799,5.029,1.682,3.173,-7.824,-4.616,-2.074,-0.041,1.002,-0.070,1.038,2.838,-0.519,80.000,8917.000,1.000
6.577,1.061,5.010,0.378,4.464,-4.271,-2.985,-2.450,-0.040,1.003,-0.073,1.038,2.777,-0.397,80.000,8918.000,1.000
5.811,2.818,5.493,0.438,5.974,0.258,-0.273,-0.749,-0.041,1.006,-0.073,1.007,2.777,-0.427,80.000,8919.000,1.000
4.868,4.417,5.630,0.950,6.795,3.999,2.010,1.632,-0.042,1.004,-0.071,0.977,2.777,-0.610,80.000,8920.000,1.000
3.488,4.002,4.828,0.735,6.417,5.716,2.745,2.961,-0.044,1.003,-0.075,1.007,2.777,-0.610,80.000,8921.000,1.000
1.758,1.370,2.946,-0.514,4.625,5.332,1.918,2.709,-0.043,1.004,-0.072,0.885,2.716,-0.519,80.000,8922.000,1.000
-0.121,-2.157,0.086,-2.189,1.400,3.549,0.211,1.578,-0.044,1.003,-0.071,0.946,2.716,-0.519,80.000,8923.000,1.000
-2.044,-5.485,-3.463,-3.671,-2.826,1.152,-1.762,0.285,-0.045,1.001,-0.070,0.946,2.747,-0.641,80.000,8924.000,1.000
-3.850,-8.680,-7.049,-4.911,-6.957,-1.185,-3.662,-1.127,-0.043,1.004,-0.074,0.916,2.777,-0.641,80.000,8925.000,1.000
-5.142,-11.943,-9.722,-6.050,-9.638,-2.694,-5.064,-2.658,-0.043,1.005,-0.074,0.854,2.686,-0.580,80.000,8926.000,1.000
-5.430,-14.315,-10.679,-6.740,-10.103,-2.584,-5.291,-3.564,-0.043,1.006,-0.071,0.824,2.686,-0.641,80.000,8927.000,1.000
-4.444,-14.131,-9.674,-6.192,-8.544,-0.538,-3.864,-2.749,-0.042,1.007,-0.072,0.732,2.655,-0.610,80.000,8928.000,1.000
-2.261,-10.801,-6.929,-3.930,-5.554,3.004,-0.943,0.099,-0.042,1.005,-0.072,0.763,2.594,-0.671,80.000,8929.000,1.000
0.720,-5.653,-2.870,-0.375,-1.518,7.139,2.787,4.049,-0.042,1.005,-0.071,0.641,2.655,-0.580,80.000,8930.000,1.000
3.603,-1.039,1.618,3.206,2.936,10.694,6.273,7.500,-0.043,1.004,-0.070,0.671,2.655,-0.641,80.000,8931.000,1.000
4.901,1.138,4.846,5.268,6.124,12.067,8.059,9.051,-0.044,1.004,-0.070,0.671,2.686,-0.549,80.000,8932.000,1.000
3.205,0.173,4.985,4.780,5.892,9.641,6.715,8.042,-0.042,1.004,-0.071,0.671,2.655,-0.549,80.000,8933.000,1.000
-1.738,-3.730,1.491,1.725,1.424,2.839,1.735,4.501,-0.042,1.006,-0.068,0.641,2.747,-0.580,80.000,8934.000,1.000
-8.520,-9.845,-4.241,-2.939,-5.795,-7.142,-5.911,-1.054,-0.042,1.003,-0.070,0.793,2.716,-0.549,80.000,8935.000,1.000
-14.541,-16.584,-9.593,-7.541,-12.845,-17.559,-13.965,-7.390,-0.042,1.003,-0.071,0.854,2.625,-0.427,80.000,8936.000,1.000
-17.325,-21.324,-12.243,-10.180,-17.181,-25.275,-19.783,-12.460,-0.043,1.003,-0.070,0.854,2.808,-0.397,80.000,8937.000,1.000
-15.879,-21.686,-11.375,-9.661,-17.913,-28.324,-21.659,-14.402,-0.041,1.003,-0.069,0.763,2.869,-0.427,80.000,8938.000,1.000
-10.986,-17.401,-7.754,-6.306,-15.678,-26.770,-19.711,-13.013,-0.042,1.002,-0.069,0.885,2.747,-0.397,80.000,8939.000,1.000
-4.294,-10.513,-2.739,-1.691,-11.571,-22.094,-15.434,-9.842,-0.042,1.001,-0.070,0.824,2.808,-0.275,80.000,8940.000,1.000
2.822,-3.434,2.720,2.689,-6.374,-15.806,-10.341,-6.588,-0.042,0.999,-0.073,0.885,2.930,-0.214,80.000,8941.000,1.000
9.575,2.902,8.169,6.396,-0.777,-8.808,-5.223,-3.734,-0.042,1.000,-0.071,0.977,2.899,-0.244,80.000,8942.000,1.000
15.315,8.668,13.029,9.654,4.143,-1.961,-0.682,-1.009,-0.042,1.001,-0.072,0.977,2.960,-0.183,80.000,8943.000,1.000
19.303,13.495,16.438,12.341,7.266,3.425,2.340,1.316,-0.042,0.999,-0.072,1.068,2.899,-0.244,80.000,8944.000,1.000
21.069,16.108,17.874,13.777,8.337,6.220,3.065,2.299,-0.043,1.000,-0.071,1.129,2.838,-0.305,80.000,8945.000,1.000
20.743,15.812,17.676,13.519,8.215,6.534,1.816,1.543,-0.044,1.003,-0.072,1.129,2.930,-0.366,80.000,8946.000,1.000
18.906,13.768,16.708,12.108,8.050,5.794,0.112,0.147,-0.041,1.004,-0.071,1.038,2.899,-0.336,80.000,8947.000,1.000
16.165,12.117,15.584,10.723,8.343,5.562,-0.428,-0.066,-0.040,1.004,-0.072,0.977,2.899,-0.397,80.000,8948.000,1.000
12.961,11.822,14.330,10.092,8.822,6.284,0.612,1.610,-0.040,1.003,-0.070,0.977,2.838,-0.397,80.000,8949.000,1.000
9.748,11.845,12.744,9.906,9.005,7.227,2.298,4.038,-0.040,1.004,-0.073,0.977,2.930,-0.397,80.000,8950.000,1.000
7.059,10.632,10.814,9.323,8.582,7.450,3.432,5.487,-0.039,1.003,-0.071,1.160,2.960,-0.397,80.000,8951.000,1.000
5.187,7.947,8.578,7.794,7.232,6.566,3.529,5.260,-0.041,1.004,-0.073,1.099,3.052,-0.427,80.000,8952.000,1.000
3.880,4.843,5.804,5.326,4.486,4.675,2.727,3.871,-0.039,1.002,-0.073,1.160,3.021,-0.336,80.000,8953.000,1.000
2.549,2.173,2.284,2.206,0.301,2.080,1.224,2.047,-0.038,1.001,-0.073,1.312,3.082,-0.305,80.000,8954.000,1.000
0.851,-0.218,-1.548,-1.173,-4.336,-0.645,-0.786,0.103,-0.039,1.003,-0.072,1.312,3.052,-0.305,80.000,8955.000,1.000
-1.030,-2.779,-4.711,-4.252,-7.951,-2.726,-2.884,-1.771,-0.039,1.002,-0.073,1.343,3.143,-0.397,80.000,8956.000,1.000
-2.661,-5.243,-6.546,-6.323,-9.881,-3.722,-4.607,-3.136,-0.040,1.002,-0.071,1.404,3.235,-0.397,80.000,8957.000,1.000
-3.738,-6.708,-7.179,-6.831,-10.620,-3.843,-5.801,-3.503,-0.040,1.000,-0.071,1.404,3.235,-0.458,80.000,8958.000,1.000
-4.099,-6.666,-6.994,-5.744,-10.779,-3.588,-6.551,-2.867,-0.041,1.000,-0.072,1.465,3.235,-0.488,80.000,8959.000,1.000
-3.508,-5.595,-5.974,-3.598,-10.178,-3.209,-6.861,-1.804,-0.043,0.999,-0.072,1.526,3.174,-0.519,80.000,8960.000,1.000
-1.658,-4.258,-3.808,-1.104,-8.265,-2.639,-6.580,-0.888,-0.045,1.000,-0.072,1.587,3.174,-0.519,80.000,8961.000,1.000
1.444,-2.708,-0.605,1.274,-5.248,-1.876,-5.701,-0.148,-0.047,0.999,-0.072,1.556,3.204,-0.671,80.000,8962.000,1.000
5.109,-0.514,2.759,3.333,-2.375,-1.328,-4.722,0.672,-0.048,1.002,-0.072,1.678,3.143,-0.732,80.000,8963.000,1.000
8.288,2.128,5.237,4.898,-0.842,-1.595,-4.449,1.442,-0.048,1.002,-0.076,1.801,2.991,-0.824,80.000,8964.000,1.000
10.339,4.062,6.447,5.766,-0.650,-2.798,-5.273,1.599,-0.050,1.003,-0.074,1.801,2.808,-0.763,80.000,8965.000,1.000
11.368,4.319,6.765,6.001,-0.752,-4.235,-6.617,0.913,-0.049,1.006,-0.076,1.770,2.716,-0.946,80.000,8966.000,1.000
11.873,3.364,6.739,6.204,-0.161,-4.797,-7.188,0.155,-0.046,1.008,-0.074,1.709,2.686,-1.099,80.000,8967.000,1.000
12.110,2.596,6.500,7.066,1.149,-4.007,-6.147,0.430,-0.046,1.009,-0.074,1.801,2.563,-1.190,80.000,8968.000,1.000
11.815,2.509,5.669,8.448,2.336,-2.678,-4.125,1.698,-0.046,1.010,-0.077,1.709,2.625,-1.221,80.000,8969.000,1.000
10.686,2.171,4.025,9.367,2.722,-2.142,-2.631,2.619,-0.045,1.010,-0.072,1.526,2.472,-1.160,80.000,8970.000,1.000
9.122,0.912,2.250,9.201,2.619,-2.749,-2.333,2.244,-0.043,1.010,-0.070,1.373,2.594,-1.099,80.000,8971.000,1.000
8.149,-0.245,1.625,8.530,2.889,-3.498,-2.431,1.282,-0.043,1.011,-0.072,1.312,2.533,-1.007,80.000,8972.000,1.000
8.490,0.444,2.832,8.449,3.868,-3.251,-1.825,1.192,-0.041,1.014,-0.075,1.160,2.472,-0.946,80.000,8973.000,1.000
9.906,3.289,5.350,9.301,5.135,-1.937,-0.446,2.368,-0.042,1.013,-0.073,1.038,2.533,-0.824,80.000,8974.000,1.000
11.501,6.566,7.978,10.318,6.151,-0.439,0.779,3.676,-0.042,1.013,-0.071,0.977,2.686,-0.732,80.000,8975.000,1.000
12.403,8.118,9.614,10.424,6.598,0.316,0.915,3.740,-0.043,1.009,-0.073,0.702,2.655,-0.702,80.000,8976.000,1.000
12.100,7.327,9.593,9.288,6.190,0.058,-0.145,2.411,-0.042,1.008,-0.072,0.671,2.777,-0.549,80.000,8977.000,1.000
10.449,5.247,7.743,7.562,4.663,-0.864,-1.721,0.804,-0.041,1.010,-0.070,0.519,2.777,-0.366,80.000,8978.000,1.000
7.677,2.971,4.478,6.111,2.173,-1.988,-3.017,-0.020,-0.042,1.008,-0.071,0.427,2.838,-0.275,80.000,8979.000,1.000
4.432,0.538,0.854,5.249,-0.407,-2.998,-3.555,0.034,-0.043,1.005,-0.072,0.488,2.747,-0.275,80.000,8980.000,1.000
1.568,-2.316,-1.868,4.730,-1.997,-3.636,-3.166,0.477,-0.044,1.003,-0.069,0.305,2.869,-0.305,80.000,8981.000,1.000
-0.415,-5.023,-3.141,4.152,-2.335,-3.764,-2.001,1.010,-0.044,1.002,-0.069,0.336,2.869,-0.153,80.000,8982.000,1.000
-1.633,-6.424,-3.491,3.261,-2.214,-3.532,-0.560,1.645,-0.046,1.000,-0.072,0.275,2.930,-0.153,80.000,8983.000,1.000
-2.360,-5.981,-3.698,2.095,-2.398,-3.179,0.633,2.368,-0.048,0.999,-0.072,0.244,2.808,-0.244,80.000,8984.000,1.000
-2.516,-4.331,-3.828,0.939,-2.611,-2.613,1.501,2.975,-0.048,0.999,-0.071,0.336,2.777,-0.214,80.000,8985.000,1.000
-1.890,-2.481,-3.355,0.121,-1.939,-1.364,2.478,3.361,-0.045,0.996,-0.074,0.427,2.777,-0.244,80.000,8986.000,1.000
-0.687,-0.729,-2.079,-0.139,-0.108,0.880,4.021,3.804,-0.045,0.996,-0.072,0.641,2.655,-0.336,80.000,8987.000,1.000
0.418,1.228,-0.594,0.199,2.008,3.665,6.004,4.679,-0.045,0.995,-0.069,0.519,2.716,-0.214,80.000,8988.000,1.000
0.874,3.258,0.299,0.950,3.305,5.887,7.648,5.843,-0.046,0.991,-0.072,0.610,2.625,-0.244,80.000,8989.000,1.000
0.850,4.519,0.509,1.839,3.668,6.680,8.198,6.603,-0.046,0.991,-0.068,0.702,2.594,-0.427,80.000,8990.000,1.000
1.164,4.485,0.782,2.816,3.977,6.128,7.654,6.503,-0.046,0.992,-0.068,0.732,2.502,-0.580,80.000,8991.000,1.000
2.539,3.872,1.900,4.170,4.952,5.075,6.718,5.995,-0.047,0.994,-0.071,0.885,2.563,-0.702,80.000,8992.000,1.000
4.947,4.047,3.898,6.190,6.380,4.308,6.044,6.004,-0.044,0.996,-0.071,0.946,2.502,-0.763,80.000,8993.000,1.000
7.675,5.515,6.162,8.619,7.595,4.005,5.648,6.767,-0.043,0.997,-0.071,1.038,2.563,-0.763,80.000,8994.000,1.000
10.004,7.396,8.111,10.611,8.376,3.910,5.107,7.454,-0.043,0.998,-0.071,1.068,2.625,-0.793,80.000,8995.000,1.000
11.776,8.612,9.639,11.457,9.090,3.920,4.298,7.204,-0.043,1.000,-0.070,1.160,2.686,-0.885,80.000,8996.000,1.000
13.290,9.266,10.914,11.317,10.058,4.323,3.751,6.276,-0.042,1.001,-0.072,1.129,2.594,-0.916,80.000,8997.000,1.000
14.753,10.370,11.935,11.021,11.097,5.384,4.101,5.760,-0.042,1.004,-0.071,1.099,2.716,-0.885,80.000,8998.000,1.000
16.031,12.329,12.555,11.192,11.864,6.939,5.340,6.264,-0.044,1.004,-0.070,1.007,2.716,-0.763,80.000,8999.000,1.000
16.946,14.254,12.869,11.771,12.460,8.587,6.851,7.276,-0.043,1.007,-0.068,1.038,2.838,-0.732,80.000,9000.000,1.000
17.518,14.983,13.232,12.312,13.272,10.075,8.039,7.868,-0.042,1.006,-0.070,0.916,2.808,-0.732,80.000,9001.000,1.000
17.794,14.431,13.733,12.492,14.169,11.307,8.691,7.727,-0.044,1.008,-0.070,0.977,2.899,-0.702,80.000,9002.000,1.000
17.527,13.444,13.792,12.139,14.188,11.961,8.635,7.117,-0.044,1.006,-0.068,1.038,2.930,-0.641,80.000,9003.000,1.000
16.183,12.318,12.521,10.910,12.294,11.332,7.392,6.006,-0.046,1.006,-0.070,0.916,3.052,-0.671,80.000,9004.000,1.000
13.423,10.217,9.590,8.374,8.481,8.921,4.656,3.900,-0.044,1.008,-0.070,0.946,2.991,-0.610,80.000,9005.000,1.000
9.601,6.471,5.680,4.633,3.940,5.218,1.105,0.813,-0.046,1.009,-0.069,0.824,2.930,-0.488,80.000,9006.000,1.000
5.657,2.019,2.048,0.728,0.168,1.652,-1.683,-2.005,-0.049,1.007,-0.068,0.763,2.960,-0.458,80.000,9007.000,1.000
2.536,-1.037,-0.294,-1.823,-1.892,-0.359,-2.267,-2.747,-0.047,1.005,-0.067,0.732,2.899,-0.427,80.000,9008.000,1.000
0.729,-1.485,-1.048,-2.165,-2.009,-0.355,-0.402,-0.722,-0.048,1.006,-0.071,0.702,2.960,-0.336,80.000,9009.000,1.000
0.174,-0.245,-0.604,-0.862,-0.480,0.979,2.811,2.800,-0.048,1.006,-0.069,0.732,2.930,-0.427,80.000,9010.000,1.000
0.339,0.659,0.233,0.558,1.894,2.414,5.739,5.633,-0.048,1.006,-0.071,0.732,2.960,-0.458,80.000,9011.000,1.000
0.365,0.030,0.507,0.768,3.739,2.933,7.190,6.424,-0.047,1.004,-0.071,0.641,2.838,-0.305,80.000,9012.000,1.000
-0.634,-1.883,-0.616,-0.698,3.513,2.065,6.709,5.182,-0.047,1.004,-0.070,0.610,2.869,-0.275,80.000,9013.000,1.000
-3.094,-4.367,-3.397,-3.605,0.553,-0.105,4.385,2.457,-0.048,1.004,-0.069,0.671,2.808,-0.305,80.000,9014.000,1.000
-6.572,-7.042,-7.066,-7.301,-4.041,-2.846,0.867,-1.230,-0.045,1.003,-0.068,0.763,2.716,-0.305,80.000,9015.000,1.000
-9.847,-9.425,-10.031,-10.744,-7.900,-4.851,-2.530,-5.043,-0.048,1.005,-0.069,0.824,2.838,-0.183,80.000,9016.000,1.000
-11.741,-10.390,-10.985,-12.711,-9.148,-4.937,-4.337,-7.591,-0.047,1.003,-0.068,0.702,2.808,-0.183,80.000,9017.000,1.000
-11.940,-8.831,-9.857,-12.442,-7.723,-2.959,-3.897,-7.681,-0.047,1.003,-0.069,0.824,2.808,-0.122,80.000,9018.000,1.000
-11.023,-5.061,-7.622,-10.214,-4.971,-0.056,-1.918,-5.461,-0.046,1.002,-0.066,0.916,2.716,-0.153,80.000,9019.000,1.000
-9.849,-1.101,-5.377,-7.286,-2.314,2.106,0.012,-2.587,-0.048,1.003,-0.067,1.007,2.625,-0.092,80.000,9020.000,1.000
-8.914,0.944,-3.680,-5.079,-0.479,2.540,0.664,-0.909,-0.048,1.005,-0.069,1.007,2.625,-0.122,80.000,9021.000,1.000
-8.209,0.745,-2.615,-4.241,0.306,1.483,0.000,-0.953,-0.048,1.005,-0.070,1.068,2.563,-0.092,80.000,9022.000,1.000
-7.532,-0.322,-2.185,-4.459,-0.075,-0.148,-1.197,-1.899,-0.049,1.004,-0.068,1.099,2.533,-0.122,80.000,9023.000,1.000
-6.761,-0.904,-2.314,-5.015,-1.404,-1.551,-2.167,-2.793,-0.049,1.003,-0.067,1.160,2.472,-0.061,80.000,9024.000,1.000
-5.753,-0.785,-2.498,-5.311,-2.713,-2.208,-2.444,-3.337,-0.045,1.000,-0.068,1.160,2.411,0.122,80.000,9025.000,1.000
-4.274,-0.308,-1.928,-4.959,-2.728,-1.721,-1.728,-3.610,-0.044,1.001,-0.066,1.251,2.472,0.092,80.000,9026.000,1.000
-2.346,0.619,-0.281,-3.774,-1.061,-0.021,-0.051,-3.558,-0.041,0.999,-0.067,1.312,2.533,0.153,80.000,9027.000,1.000
-0.488,2.390,1.789,-1.912,1.281,2.220,1.860,-3.106,-0.042,1.000,-0.071,1.404,2.441,0.244,80.000,9028.000,1.000
0.731,4.787,3.303,0.104,2.910,3.880,2.837,-2.580,-0.043,1.000,-0.068,1.556,2.563,0.336,80.000,9029.000,1.000
1.411,6.851,4.092,1.725,3.552,4.390,2.296,-2.529,-0.042,1.001,-0.068,1.678,2.655,0.397,80.000,9030.000,1.000
2.268,7.866,4.895,2.755,4.105,4.260,0.886,-3.012,-0.042,1.003,-0.071,1.648,2.716,0.549,80.000,9031.000,1.000
3.732,8.123,6.255,3.356,5.248,4.420,-0.092,-3.320,-0.041,1.002,-0.071,1.770,2.594,0.580,80.000,9032.000,1.000
5.316,8.433,7.701,3.730,6.494,5.216,0.129,-2.608,-0.041,0.999,-0.071,1.770,2.747,0.580,80.000,9033.000,1.000
6.084,8.961,8.221,3.800,6.835,6.114,1.151,-0.912,-0.040,0.999,-0.068,1.953,2.808,0.610,80.000,9034.000,1.000
5.652,8.940,7.385,3.270,6.006,6.342,1.924,0.725,-0.040,0.997,-0.070,2.045,2.808,0.702,80.000,9035.000,1.000
4.581,7.811,5.874,2.172,4.833,5.852,1.936,1.418,-0.040,0.997,-0.075,2.106,2.960,0.732,80.000,9036.000,1.000
3.776,6.291,4.830,1.196,4.320,5.409,1.690,1.525,-0.042,0.998,-0.076,2.075,2.869,0.671,80.000,9037.000,1.000
3.600,5.751,4.758,1.170,4.584,5.622,1.900,2.103,-0.044,0.999,-0.079,2.106,2.869,0.519,80.000,9038.000,1.000
3.587,6.542,5.214,2.174,4.962,6.229,2.551,3.459,-0.043,1.001,-0.073,2.228,2.899,0.366,80.000,9039.000,1.000
2.977,7.460,5.476,3.394,4.983,6.522,3.022,4.727,-0.042,0.999,-0.073,2.228,2.930,0.397,80.000,9040.000,1.000
1.549,7.178,5.296,3.976,4.849,6.259,2.984,4.991,-0.042,1.001,-0.075,2.289,2.899,0.366,80.000,9041.000,1.000
-0.161,5.888,4.922,3.862,4.919,5.934,2.896,4.447,-0.042,1.002,-0.076,2.441,2.930,0.244,80.000,9042.000,1.000
-1.436,4.976,4.545,3.588,5.014,6.071,3.353,4.011,-0.040,1.004,-0.074,2.441,3.021,0.122,80.000,9043.000,1.000
-2.000,5.145,4.021,3.420,4.542,6.438,4.129,3.940,-0.040,1.005,-0.074,2.380,2.899,0.153,80.000,9044.000,1.000
-1.999,5.542,3.216,3.015,3.292,6.247,4.360,3.444,-0.039,1.003,-0.074,2.319,2.960,0.153,80.000,9045.000,1.000
-1.590,5.039,2.384,2.023,1.811,5.123,3.671,1.845,-0.040,1.004,-0.076,2.197,2.960,0.122,80.000,9046.000,1.000
-0.781,3.863,1.991,0.803,0.865,3.640,2.772,-0.212,-0.037,1.004,-0.076,2.167,3.113,0.183,80.000,9047.000,1.000
0.304,3.367,2.237,0.266,0.776,2.776,2.811,-1.136,-0.036,1.007,-0.072,2.045,3.113,0.122,80.000,9048.000,1.000
1.286,4.200,2.832,0.915,1.356,2.908,4.187,-0.096,-0.035,1.008,-0.073,2.014,3.296,0.031,80.000,9049.000,1.000
1.817,5.334,3.254,2.201,2.260,3.528,6.145,1.990,-0.037,1.008,-0.073,1.862,3.265,0.061,80.000,9050.000,1.000
1.858,5.279,3.189,3.040,3.240,3.935,7.606,3.459,-0.037,1.010,-0.075,1.709,3.326,0.092,80.000,9051.000,1.000
1.493,3.798,2.573,2.836,3.976,3.745,8.084,3.604,-0.035,1.009,-0.076,1.648,3.296,0.031,80.000,9052.000,1.000
0.667,1.977,1.391,1.889,3.993,2.770,7.733,3.045,-0.035,1.011,-0.074,1.526,3.448,0.061,80.000,9053.000,1.000
-0.586,0.830,-0.183,0.959,3.180,1.094,6.958,2.680,-0.035,1.009,-0.077,1.312,3.510,0.214,80.000,9054.000,1.000
-1.799,0.356,-1.529,0.591,2.235,-0.613,6.164,2.677,-0.036,1.007,-0.074,1.221,3.510,0.031,80.000,9055.000,1.000
-2.262,0.059,-1.894,0.828,2.115,-1.297,5.667,2.608,-0.038,1.007,-0.075,1.007,3.418,0.214,80.000,9056.000,1.000
-1.717,0.013,-1.125,1.434,3.000,-0.269,5.635,2.286,-0.038,1.005,-0.071,0.946,3.418,-0.031,80.000,9057.000,1.000
-0.763,0.729,0.022,2.157,3.980,2.146,5.898,1.994,-0.038,1.006,-0.071,0.977,3.510,-0.092,80.000,9058.000,1.000
-0.410,1.981,0.433,2.681,3.927,4.679,5.907,1.832,-0.039,1.006,-0.074,0.854,3.448,-0.092,80.000,9059.000,1.000
-1.154,2.492,-0.379,2.639,2.668,6.118,5.312,1.398,-0.040,1.003,-0.073,0.824,3.479,-0.153,80.000,9060.000,1.000
-2.588,1.259,-1.891,1.946,1.127,6.285,4.516,0.458,-0.040,1.001,-0.072,0.763,3.296,-0.275,80.000,9061.000,1.000
-3.953,-1.168,-3.213,1.018,0.269,5.931,4.256,-0.412,-0.043,1.001,-0.072,0.793,3.265,-0.305,80.000,9062.000,1.000
-4.982,-3.221,-4.044,0.371,0.101,5.737,4.595,-0.341,-0.044,1.000,-0.073,0.671,3.204,-0.427,80.000,9063.000,1.000
-6.119,-4.113,-4.873,-0.084,-0.154,5.598,4.621,0.630,-0.044,0.998,-0.073,0.824,3.082,-0.610,80.000,9064.000,1.000
-7.869,-4.581,-6.217,-1.065,-1.035,4.941,3.320,1.343,-0.045,0.999,-0.073,0.854,2.960,-0.671,80.000,9065.000,1.000
-10.068,-5.612,-7.883,-3.006,-2.259,3.617,0.720,0.807,-0.045,0.999,-0.072,0.977,2.838,-0.702,80.000,9066.000,1.000
-11.861,-6.841,-9.125,-5.266,-3.160,2.266,-1.960,-0.532,-0.044,0.999,-0.072,0.977,2.808,-0.916,80.000,9067.000,1.000
-12.374,-6.833,-9.376,-6.499,-3.424,1.701,-3.379,-1.202,-0.043,0.998,-0.072,1.038,2.625,-1.007,80.000,9068.000,1.000
-11.391,-4.946,-8.631,-5.891,-3.164,2.125,-3.177,-0.344,-0.043,1.000,-0.073,1.099,2.533,-0.977,80.000,9069.000,1.000
-9.434,-2.319,-7.203,-3.890,-2.487,3.092,-2.053,1.380,-0.043,1.000,-0.074,1.160,2.319,-1.068,80.000,9070.000,1.000
-7.367,-0.784,-5.484,-1.753,-1.508,3.938,-1.110,2.503,-0.042,1.000,-0.072,1.129,2.380,-1.099,80.000,9071.000,1.000
-5.968,-1.121,-4.046,-0.552,-0.821,4.021,-1.227,2.116,-0.042,1.001,-0.073,1.221,2.350,-1.007,80.000,9072.000,1.000
-5.616,-2.565,-3.539,-0.511,-1.280,2.942,-2.644,0.513,-0.041,1.001,-0.073,1.282,2.197,-0.977,80.000,9073.000,1.000
-6.065,-3.836,-4.062,-1.076,-2.887,0.952,-4.752,-1.281,-0.043,1.003,-0.073,1.190,2.258,-0.916,80.000,9074.000,1.000
-6.563,-4.335,-4.827,-1.481,-4.313,-0.977,-6.384,-2.432,-0.043,1.004,-0.076,1.343,2.319,-0.946,80.000,9075.000,1.000
-6.358,-4.202,-4.757,-1.237,-4.004,-1.773,-6.540,-2.674,-0.044,1.005,-0.073,1.282,2.197,-0.824,80.000,9076.000,1.000
-5.138,-3.424,-3.399,-0.154,-1.671,-0.944,-4.931,-1.931,-0.044,1.005,-0.072,1.373,2.167,-0.732,80.000,9077.000,1.000
-3.068,-1.513,-1.164,1.788,1.547,1.240,-2.021,-0.083,-0.044,1.005,-0.073,1.373,1.984,-0.793,80.000,9078.000,1.000
-0.591,1.552,1.198,4.301,4.233,3.937,1.222,2.560,-0.044,1.005,-0.073,1.434,1.892,-0.793,80.000,9079.000,1.000
1.776,4.561,3.190,6.641,5.752,6.073,3.679,4.870,-0.047,1.006,-0.072,1.465,1.953,-0.793,80.000,9080.000,1.000
3.532,5.858,4.595,7.910,6.134,6.752,4.492,5.500,-0.048,1.004,-0.072,1.465,1.801,-0.763,80.000,9081.000,1.000
4.273,4.903,5.166,7.701,5.339,5.522,3.379,3.993,-0.049,1.004,-0.072,1.495,1.709,-0.610,80.000,9082.000,1.000
3.863,2.678,4.611,6.439,3.155,2.473,0.688,1.123,-0.047,1.004,-0.073,1.526,1.709,-0.580,80.000,9083.000,1.000
2.645,0.505,3.036,5.020,-0.096,-1.745,-2.784,-1.914,-0.046,1.005,-0.075,1.495,1.556,-0.610,80.000,9084.000,1.000
1.492,-1.080,1.275,4.225,-3.092,-5.927,-5.985,-4.341,-0.045,1.005,-0.074,1.404,1.587,-0.610,80.000,9085.000,1.000
1.404,-2.108,0.456,4.409,-4.266,-8.615,-7.873,-5.818,-0.043,1.002,-0.073,1.495,1.587,-0.610,80.000,9086.000,1.000
2.732,-2.341,1.048,5.482,-3.172,-8.823,-7.879,-6.053,-0.044,1.000,-0.071,1.526,1.556,-0.519,80.000,9087.000,1.000
4.788,-1.212,2.470,7.013,-0.837,-6.594,-6.232,-4.846,-0.044,1.001,-0.072,1.587,1.526,-0.488,80.000,9088.000,1.000
6.287,1.243,3.729,8.305,1.294,-2.951,-3.886,-2.629,-0.042,1.002,-0.073,1.648,1.495,-0.366,80.000,9089.000,1.000
6.231,3.747,4.186,8.516,2.446,0.620,-2.110,-0.708,-0.042,1.002,-0.074,1.709,1.617,-0.275,80.000,9090.000,1.000
4.516,4.669,3.725,7.104,2.559,2.869,-1.792,-0.431,-0.041,1.002,-0.074,1.678,1.617,-0.214,80.000,9091.000,1.000
1.805,3.624,2.462,4.399,1.712,3.388,-2.826,-1.957,-0.041,1.002,-0.073,1.648,1.587,-0.366,80.000,9092.000,1.000
-1.073,1.725,0.547,1.515,-0.101,2.617,-4.296,-4.108,-0.040,1.004,-0.072,1.709,1.617,-0.275,80.000,9093.000,1.000
-3.473,0.200,-1.649,-0.445,-2.534,1.305,-5.280,-5.524,-0.039,1.005,-0.072,1.740,1.740,-0.214,80.000,9094.000,1.000
-4.879,-0.751,-3.332,-1.059,-4.526,0.093,-5.373,-5.678,-0.038,1.005,-0.075,1.709,1.831,-0.153,80.000,9095.000,1.000
-4.976,-1.559,-3.672,-0.610,-4.882,-0.539,-4.575,-4.777,-0.040,1.005,-0.074,1.801,2.045,-0.092,80.000,9096.000,1.000
-3.892,-2.095,-2.484,0.418,-3.292,-0.263,-2.959,-3.022,-0.041,1.004,-0.075,1.770,2.106,-0.092,80.000,9097.000,1.000
-2.149,-1.485,-0.383,1.761,-0.564,0.944,-0.629,-0.367,-0.042,1.004,-0.075,1.709,2.136,-0.153,80.000,9098.000,1.000
-0.382,0.613,1.676,3.184,2.125,2.600,1.978,2.868,-0.041,1.005,-0.073,1.617,2.106,-0.244,80.000,9099.000,1.000
0.899,3.071,3.016,4.139,4.053,3.847,4.006,5.560,-0.041,1.005,-0.072,1.648,2.319,-0.214,80.000,9100.000,1.000
1.433,4.246,3.514,4.065,5.092,4.030,4.699,6.530,-0.042,1.004,-0.073,1.617,2.441,-0.244,80.000,9101.000,1.000
1.228,3.739,3.389,3.050,5.296,3.167,4.016,5.760,-0.041,1.005,-0.075,1.526,2.472,-0.183,80.000,9102.000,1.000
0.448,2.660,2.789,1.857,4.605,1.793,2.606,4.492,-0.040,1.004,-0.073,1.465,2.594,-0.244,80.000,9103.000,1.000
-0.746,2.014,1.613,1.053,2.988,0.342,1.077,3.817,-0.039,1.004,-0.075,1.495,2.716,-0.275,80.000,9104.000,1.000
-2.137,1.431,-0.229,0.391,0.745,-1.163,-0.547,3.495,-0.039,1.005,-0.075,1.465,2.747,-0.275,80.000,9105.000,1.000
-3.304,-0.005,-2.433,-0.699,-1.512,-2.686,-2.437,2.557,-0.038,1.004,-0.074,1.434,2.747,-0.336,80.000,9106.000,1.000
-3.780,-2.103,-4.393,-2.236,-3.304,-3.799,-4.319,0.776,-0.038,1.004,-0.072,1.434,2.869,-0.397,80.000,9107.000,1.000
-3.454,-3.489,-5.676,-3.611,-4.619,-4.018,-5.587,-0.983,-0.040,1.004,-0.073,1.465,3.052,-0.397,80.000,9108.000,1.000
-2.675,-3.200,-6.211,-4.261,-5.575,-3.315,-5.907,-1.820,-0.040,1.005,-0.079,1.495,3.082,-0.336,80.000,9109.000,1.000
-1.920,-1.812,-6.044,-4.183,-5.904,-2.063,-5.418,-1.746,-0.040,1.005,-0.075,1.373,3.143,-0.305,80.000,9110.000,1.000
-1.410,-0.670,-5.198,-3.786,-5.177,-0.658,-4.424,-1.378,-0.038,1.004,-0.075,1.343,3.326,-0.336,80.000,9111.000,1.000
-1.145,-0.337,-3.924,-3.366,-3.546,0.678,-3.121,-0.971,-0.039,1.002,-0.074,1.465,3.387,-0.244,80.000,9112.000,1.000
-1.253,-0.365,-2.949,-2.966,-1.988,1.718,-1.714,-0.264,-0.040,1.002,-0.074,1.373,3.387,-0.336,80.000,9113.000,1.000
-2.044,-0.453,-3.110,-2.720,-1.542,2.060,-0.628,0.745,-0.040,1.002,-0.073,1.404,3.418,-0.275,80.000,9114.000,1.000
-3.561,-1.106,-4.548,-2.984,-2.291,1.421,-0.250,1.465,-0.039,1.002,-0.075,1.312,3.540,-0.244,80.000,9115.000,1.000
-5.335,-2.902,-6.539,-4.012,-3.398,0.014,-0.484,1.364,-0.042,1.001,-0.075,1.343,3.601,-0.336,80.000,9116.000,1.000
-6.792,-5.479,-8.272,-5.591,-4.185,-1.562,-0.816,0.680,-0.043,1.003,-0.075,1.404,3.662,-0.244,80.000,9117.000,1.000
-7.764,-7.682,-9.583,-7.106,-4.813,-2.802,-0.841,0.204,-0.044,1.005,-0.078,1.404,3.662,-0.153,80.000,9118.000,1.000
-8.576,-8.888,-10.851,-8.091,-5.832,-3.711,-0.725,0.281,-0.043,1.005,-0.076,1.282,3.723,-0.153,80.000,9119.000,1.000
-9.681,-9.809,-12.371,-8.687,-7.355,-4.708,-1.065,0.277,-0.043,1.006,-0.074,1.282,3.754,-0.061,80.000,9120.000,1.000
-11.190,-11.491,-13.909,-9.329,-8.837,-6.022,-2.128,-0.596,-0.044,1.004,-0.073,1.343,3.632,-0.122,80.000,9121.000,1.000
-12.698,-13.703,-14.828,-9.981,-9.617,-7.297,-3.358,-2.034,-0.045,1.004,-0.075,1.251,3.540,-0.061,80.000,9122.000,1.000
-13.667,-15.018,-14.707,-10.079,-9.592,-8.055,-3.927,-2.809,-0.046,1.003,-0.075,1.221,3.510,0.000,80.000,9123.000,1.000
-13.944,-14.625,-13.752,-9.385,-9.238,-8.406,-3.737,-2.303,-0.044,1.004,-0.072,1.160,3.357,0.092,80.000,9124.000,1.000
-13.710,-13.434,-12.505,-8.510,-8.986,-8.927,-3.448,-1.311,-0.046,1.005,-0.075,1.221,3.357,0.061,80.000,9125.000,1.000
-13.063,-13.000,-11.321,-8.346,-8.859,-9.895,-3.560,-1.067,-0.048,1.004,-0.075,1.221,3.265,0.092,80.000,9126.000,1.000
-11.981,-13.729,-10.345,-9.152,-8.819,-10.964,-3.851,-1.863,-0.047,1.002,-0.074,1.160,3.021,-0.031,80.000,9127.000,1.000
-10.669,-14.634,-9.792,-10.416,-9.130,-11.638,-3.837,-3.002,-0.047,1.003,-0.072,1.221,2.960,0.092,80.000,9128.000,1.000
-9.631,-14.794,-9.897,-11.571,-10.069,-11.845,-3.484,-3.974,-0.048,1.002,-0.073,1.190,2.838,0.092,80.000,9129.000,1.000
-9.231,-14.457,-10.520,-12.563,-11.328,-11.864,-3.194,-5.153,-0.044,1.003,-0.076,1.190,2.808,0.092,80.000,9130.000,1.000
-9.367,-14.346,-11.020,-13.556,-12.020,-11.795,-3.220,-7.080,-0.043,1.003,-0.074,1.190,2.808,0.092,80.000,9131.000,1.000
-9.642,-14.316,-10.709,-14.328,-11.475,-11.320,-3.319,-9.411,-0.046,1.004,-0.075,1.251,2.625,0.214,80.000,9132.000,1.000
-9.765,-13.295,-9.388,-14.256,-9.843,-10.062,-3.041,-10.991,-0.046,1.003,-0.077,1.221,2.625,0.092,80.000,9133.000,1.000
-9.636,-10.673,-7.352,-12.956,-7.767,-8.106,-2.296,-11.038,-0.045,1.003,-0.074,1.312,2.594,0.305,80.000,9134.000,1.000
-9.123,-7.268,-4.963,-10.757,-5.698,-6.108,-1.556,-10.003,-0.045,1.001,-0.073,1.404,2.502,0.183,80.000,9135.000,1.000
-7.977,-4.519,-2.385,-8.414,-3.730,-4.752,-1.361,-8.955,-0.044,1.002,-0.070,1.404,2.502,0.305,80.000,9136.000,1.000
-6.094,-2.887,0.235,-6.390,-1.963,-4.112,-1.653,-8.258,-0.042,1.001,-0.074,1.434,2.380,0.275,80.000,9137.000,1.000
-3.762,-1.518,2.571,-4.554,-0.655,-3.664,-1.811,-7.279,-0.041,1.001,-0.074,1.434,2.380,0.244,80.000,9138.000,1.000
-1.498,0.423,4.285,-2.625,0.115,-2.896,-1.331,-5.450,-0.042,1.002,-0.073,1.495,2.258,0.336,80.000,9139.000,1.000
0.329,2.543,5.329,-0.798,0.699,-1.811,-0.311,-3.238,-0.043,1.002,-0.075,1.526,2.258,0.305,80.000,9140.000,1.000
1.718,3.765,5.970,0.340,1.556,-0.794,0.787,-1.685,-0.041,1.000,-0.072,1.648,2.228,0.336,80.000,9141.000,1.000
2.869,3.814,6.463,0.535,2.675,-0.154,1.705,-1.114,-0.042,1.003,-0.073,1.617,2.197,0.397,80.000,9142.000,1.000
3.809,3.504,6.706,0.177,3.422,0.016,2.485,-0.807,-0.041,1.004,-0.074,1.648,2.136,0.305,80.000,9143.000,1.000
4.248,3.453,6.307,-0.269,3.125,-0.361,3.097,-0.057,-0.040,1.003,-0.076,1.587,2.167,0.275,80.000,9144.000,1.000
3.894,3.107,5.004,-0.903,1.760,-1.448,3.235,0.834,-0.040,1.003,-0.072,1.556,2.197,0.275,80.000,9145.000,1.000
2.853,1.543,3.009,-2.169,-0.051,-3.269,2.671,1.017,-0.039,1.004,-0.073,1.678,2.106,0.183,80.000,9146.000,1.000
1.589,-0.944,0.936,-4.008,-1.578,-5.326,1.782,0.449,-0.036,1.005,-0.073,1.709,2.167,0.153,80.000,9147.000,1.000
0.447,-2.834,-0.703,-5.676,-2.529,-6.784,1.326,0.094,-0.037,1.003,-0.073,1.709,2.197,0.153,80.000,9148.000,1.000
-0.630,-3.146,-1.853,-6.557,-3.086,-7.170,1.567,0.591,-0.037,1.003,-0.073,1.648,2.319,0.122,80.000,9149.000,1.000
-1.832,-2.508,-2.627,-6.795,-3.382,-6.608,2.086,1.417,-0.038,1.004,-0.077,1.678,2.258,0.031,80.000,9150.000,1.000
-3.154,-2.197,-3.001,-6.996,-3.251,-5.398,2.473,1.645,-0.039,1.003,-0.076,1.648,2.350,0.092,80.000,9151.000,1.000
-4.487,-2.667,-3.101,-7.589,-2.799,-3.840,2.694,1.032,-0.038,1.005,-0.075,1.587,2.411,0.061,80.000,9152.000,1.000
-5.811,-3.408,-3.552,-8.631,-2.844,-2.481,2.682,0.009,-0.039,1.003,-0.074,1.617,2.411,-0.061,80.000,9153.000,1.000
-7.126,-4.049,-5.016,-9.998,-4.187,-2.061,2.038,-1.117,-0.039,1.003,-0.074,1.556,2.563,-0.122,80.000,9154.000,1.000
-8.180,-4.945,-7.250,-11.448,-6.438,-2.877,0.501,-2.432,-0.038,1.003,-0.071,1.556,2.502,-0.061,80.000,9155.000,1.000
-8.411,-6.375,-8.945,-12.438,-8.011,-4.270,-1.394,-3.797,-0.038,1.005,-0.075,1.617,2.594,-0.153,80.000,9156.000,1.000
-7.428,-7.646,-8.836,-12.220,-7.588,-5.039,-2.520,-4.459,-0.039,1.004,-0.074,1.556,2.655,-0.244,80.000,9157.000,1.000
-5.635,-7.655,-6.997,-10.482,-5.462,-4.602,-2.238,-3.747,-0.038,1.002,-0.076,1.526,2.808,-0.305,80.000,9158.000,1.000
-4.122,-6.314,-4.772,-7.872,-3.157,-3.568,-1.120,-2.045,-0.039,1.002,-0.076,1.526,2.869,-0.366,80.000,9159.000,1.000
-3.717,-4.871,-3.425,-5.642,-1.814,-2.990,-0.379,-0.718,-0.040,1.003,-0.078,1.465,2.838,-0.305,80.000,9160.000,1.000
-4.176,-4.530,-3.073,-4.616,-1.325,-3.169,-0.663,-0.832,-0.039,1.003,-0.076,1.556,2.838,-0.336,80.000,9161.000,1.000
-4.518,-5.003,-2.989,-4.546,-0.961,-3.434,-1.522,-2.034,-0.039,1.003,-0.076,1.526,2.869,-0.397,80.000,9162.000,1.000
-4.134,-4.869,-2.667,-4.542,-0.429,-3.073,-2.109,-2.993,-0.039,1.003,-0.079,1.526,2.991,-0.305,80.000,9163.000,1.000
-3.304,-3.427,-2.283,-4.078,-0.048,-2.216,-2.242,-2.960,-0.038,1.001,-0.075,1.526,3.052,-0.336,80.000,9164.000,1.000
-2.584,-1.571,-2.085,-3.334,0.052,-1.526,-2.343,-2.385,-0.039,1.001,-0.076,1.526,3.021,-0.397,80.000,9165.000,1.000
-2.055,-0.533,-1.717,-2.573,0.476,-1.172,-2.416,-1.850,-0.039,1.001,-0.076,1.587,3.021,-0.275,80.000,9166.000,1.000
-1.436,-0.326,-0.612,-1.608,1.869,-0.626,-1.732,-1.020,-0.038,1.002,-0.074,1.495,3.113,-0.275,80.000,9167.000,1.000
-0.711,-0.006,1.075,-0.166,3.860,0.436,0.185,0.840,-0.041,1.004,-0.074,1.587,2.960,-0.214,80.000,9168.000,1.000
-0.353,0.726,2.343,1.415,5.194,1.418,2.621,3.517,-0.040,1.004,-0.074,1.617,3.113,-0.214,80.000,9169.000,1.000
-0.791,0.839,2.309,2.195,4.965,1.274,4.077,5.525,-0.039,1.004,-0.076,1.740,3.113,-0.336,80.000,9170.000,1.000
-1.812,-0.760,1.085,1.465,3.397,-0.398,3.606,5.393,-0.039,1.004,-0.076,1.648,3.143,-0.366,80.000,9171.000,1.000
-2.702,-3.656,-0.450,-0.507,1.329,-2.952,1.558,3.108,-0.042,1.004,-0.074,1.678,3.021,-0.427,80.000,9172.000,1.000
-2.951,-6.069,-1.568,-2.663,-0.675,-5.326,-0.931,0.071,-0.042,1.003,-0.073,1.709,2.960,-0.427,80.000,9173.000,1.000
-2.628,-6.635,-2.119,-4.030,-2.422,-6.841,-2.932,-2.290,-0.043,1.002,-0.072,1.740,3.021,-0.458,80.000,9174.000,1.000
-2.098,-5.719,-2.225,-4.392,-3.626,-7.429,-4.167,-3.620,-0.042,1.001,-0.074,1.801,3.021,-0.397,80.000,9175.000,1.000
-1.621,-4.753,-1.964,-4.153,-3.916,-7.359,-4.744,-4.366,-0.040,1.000,-0.075,1.831,2.869,-0.336,80.000,9176.000,1.000
-1.304,-4.534,-1.502,-3.725,-3.381,-6.919,-4.767,-4.787,-0.043,0.999,-0.078,1.831,2.838,-0.458,80.000,9177.000,1.000
-1.274,-4.575,-1.235,-3.198,-2.753,-6.307,-4.309,-4.595,-0.042,1.000,-0.077,1.862,2.777,-0.366,80.000,9178.000,1.000
-1.577,-4.110,-1.432,-2.534,-2.704,-5.655,-3.595,-3.600,-0.044,1.000,-0.076,1.953,2.838,-0.275,80.000,9179.000,1.000
-1.838,-3.095,-1.672,-1.712,-2.935,-4.872,-2.862,-2.145,-0.043,1.002,-0.074,1.923,2.777,-0.336,80.000,9180.000,1.000
-1.350,-1.907,-0.947,-0.597,-2.301,-3.540,-1.993,-0.603,-0.043,1.004,-0.074,2.014,2.686,-0.183,80.000,9181.000,1.000
0.151,-0.555,1.248,1.023,-0.132,-1.338,-0.626,1.201,-0.042,1.004,-0.077,2.106,2.686,-0.153,80.000,9182.000,1.000
1.937,1.221,4.057,3.068,2.826,1.330,1.252,3.623,-0.041,1.004,-0.077,2.167,2.686,-0.183,80.000,9183.000,1.000
2.853,3.216,5.928,5.028,5.163,3.490,3.078,6.408,-0.041,1.004,-0.077,2.106,2.716,-0.153,80.000,9184.000,1.000
2.461,4.606,6.148,6.329,6.309,4.485,4.204,8.574,-0.041,1.006,-0.078,2.045,2.625,-0.244,80.000,9185.000,1.000
1.452,4.772,5.385,6.801,6.806,4.518,4.430,9.220,-0.042,1.007,-0.077,1.953,2.625,-0.061,80.000,9186.000,1.000
0.947,4.168,4.759,6.796,7.208,4.289,4.050,8.382,-0.040,1.008,-0.076,2.014,2.502,-0.061,80.000,9187.000,1.000
1.531,4.008,4.752,6.846,7.278,4.298,3.483,6.923,-0.042,1.007,-0.079,1.892,2.441,-0.122,80.000,9188.000,1.000
2.863,4.847,5.064,7.101,6.482,4.465,2.859,5.547,-0.042,1.006,-0.079,1.923,2.502,-0.122,80.000,9189.000,1.000
4.012,5.723,5.203,7.083,4.892,4.313,1.983,4.139,-0.041,1.006,-0.081,1.923,2.502,-0.061,80.000,9190.000,1.000
4.191,5.185,4.974,6.168,3.225,3.557,0.752,2.261,-0.042,1.005,-0.079,1.892,2.441,-0.153,80.000,9191.000,1.000
3.333,3.102,4.444,4.355,2.037,2.450,-0.529,0.089,-0.042,1.004,-0.076,1.862,2.502,-0.092,80.000,9192.000,1.000
2.043,0.978,3.693,2.403,1.193,1.523,-1.385,-1.504,-0.042,1.003,-0.079,1.892,2.502,-0.122,80.000,9193.000,1.000
1.024,0.263,2.805,1.133,0.303,1.078,-1.653,-1.891,-0.041,1.000,-0.076,1.892,2.411,-0.031,80.000,9194.000,1.000
0.593,0.746,1.997,0.690,-0.570,0.972,-1.621,-1.444,-0.041,1.000,-0.077,1.801,2.350,-0.031,80.000,9195.000,1.000
0.719,1.096,1.604,0.639,-0.906,0.912,-1.612,-1.039,-0.039,1.001,-0.077,1.892,2.319,-0.092,80.000,9196.000,1.000
1.327,0.794,1.871,0.740,-0.316,0.955,-1.451,-0.885,-0.040,1.002,-0.080,1.923,2.289,-0.122,80.000,9197.000,1.000
2.367,0.780,2.706,1.287,1.001,1.425,-0.693,-0.308,-0.039,1.003,-0.077,1.923,2.350,-0.122,80.000,9198.000,1.000
3.749,1.991,3.746,2.582,2.451,2.358,0.600,1.133,-0.039,1.004,-0.077,1.892,2.258,-0.153,80.000,9199.000,1.000
5.461,4.048,4.791,4.455,3.733,3.425,1.792,2.878,-0.040,1.003,-0.078,1.801,2.319,-0.153,80.000,9200.000,1.000
7.571,5.816,6.007,6.445,5.074,4.379,2.425,4.016,-0.039,1.005,-0.077,1.740,2.380,-0.214,80.000,9201.000,1.000
9.869,6.798,7.478,8.219,6.554,5.171,2.557,4.318,-0.038,1.005,-0.080,1.740,2.319,-0.183,80.000,9202.000,1.000
11.629,7.412,8.730,9.599,7.519,5.620,2.327,4.244,-0.038,1.007,-0.080,1.678,2.411,-0.092,80.000,9203.000,1.000
12.050,7.898,8.971,10.267,7.068,5.268,1.541,4.029,-0.039,1.005,-0.082,1.587,2.350,-0.092,80.000,9204.000,1.000
10.985,7.568,7.841,9.732,5.079,3.761,-0.094,3.231,-0.039,1.005,-0.078,1.556,2.502,-0.244,80.000,9205.000,1.000
9.172,5.699,5.852,7.851,2.528,1.431,-2.318,1.487,-0.039,1.004,-0.079,1.617,2.563,-0.153,80.000,9206.000,1.000
7.676,2.964,4.015,5.330,0.697,-0.644,-4.094,-0.515,-0.039,1.006,-0.080,1.617,2.594,-0.183,80.000,9207.000,1.000
7.028,1.208,2.951,3.368,0.134,-1.463,-4.348,-1.384,-0.039,1.004,-0.081,1.556,2.594,-0.244,80.000,9208.000,1.000
6.981,1.595,2.534,2.719,0.524,-0.953,-2.926,-0.411,-0.039,1.004,-0.080,1.404,2.655,-0.275,80.000,9209.000,1.000
7.088,3.498,2.491,3.279,1.503,0.249,-0.603,1.707,-0.040,1.003,-0.078,1.312,2.594,-0.183,80.000,9210.000,1.000
7.257,5.452,2.959,4.526,3.135,1.664,1.795,3.677,-0.040,1.001,-0.080,1.221,2.716,-0.244,80.000,9211.000,1.000
7.643,6.822,4.147,6.117,5.415,3.353,4.045,4.906,-0.038,1.004,-0.081,1.221,2.747,-0.305,80.000,9212.000,1.000
8.303,8.211,5.792,7.996,7.782,5.556,6.382,5.848,-0.039,1.001,-0.081,1.312,2.777,-0.275,80.000,9213.000,1.000
9.137,10.297,7.364,10.040,9.577,8.270,8.915,7.107,-0.040,1.003,-0.082,1.312,2.899,-0.275,80.000,9214.000,1.000
10.092,12.714,8.667,11.782,10.810,11.220,11.412,8.553,-0.041,1.003,-0.080,1.343,2.777,-0.366,80.000,9215.000,1.000
11.162,14.359,9.866,12.606,12.008,13.997,13.552,9.532,-0.039,1.002,-0.078,1.404,2.777,-0.366,80.000,9216.000,1.000
11.993,14.513,10.815,12.189,13.165,15.933,15.018,9.653,-0.039,1.002,-0.075,1.343,2.777,-0.397,80.000,9217.000,1.000
11.661,13.189,10.677,10.620,13.224,15.940,15.224,8.961,-0.041,1.004,-0.077,1.282,2.777,-0.275,80.000,9218.000,1.000
9.144,10.368,8.484,8.084,10.896,12.826,13.239,7.270,-0.041,1.003,-0.080,1.312,2.808,-0.214,80.000,9219.000,1.000
4.168,5.492,4.065,4.610,5.895,6.105,8.319,3.858,-0.041,1.003,-0.078,1.282,2.991,-0.244,80.000,9220.000,1.000
-2.236,-1.569,-1.553,0.452,-0.627,-3.148,0.899,-1.566,-0.042,1.004,-0.077,1.312,2.838,-0.214,80.000,9221.000,1.000
-8.034,-9.089,-6.527,-3.316,-6.686,-12.196,-6.897,-7.624,-0.040,1.004,-0.077,1.495,2.747,-0.153,80.000,9222.000,1.000
-11.365,-13.964,-9.233,-5.126,-10.560,-17.946,-12.270,-11.704,-0.042,1.003,-0.078,1.465,2.838,-0.122,80.000,9223.000,1.000
-11.590,-14.205,-9.160,-4.194,-11.520,-18.852,-13.622,-12.055,-0.041,1.005,-0.080,1.526,2.777,-0.122,80.000,9224.000,1.000
-9.270,-10.616,-6.885,-1.272,-9.779,-15.623,-11.420,-9.233,-0.039,1.003,-0.079,1.526,2.899,-0.092,80.000,9225.000,1.000
-5.436,-5.743,-3.433,2.040,-6.135,-10.267,-7.400,-5.351,-0.040,1.005,-0.078,1.434,2.777,-0.183,80.000,9226.000,1.000
-1.099,-1.460,0.190,4.610,-1.805,-4.681,-3.212,-2.117,-0.040,1.002,-0.074,1.495,2.777,-0.183,80.000,9227.000,1.000
2.782,1.946,3.082,6.290,1.750,-0.058,0.143,0.104,-0.042,1.000,-0.076,1.526,2.747,-0.183,80.000,9228.000,1.000
5.320,4.549,4.573,7.356,3.399,2.895,2.012,1.495,-0.041,0.997,-0.078,1.556,2.686,-0.214,80.000,9229.000,1.000
6.048,5.673,4.552,7.844,2.997,3.812,1.923,1.827,-0.040,0.995,-0.079,1.648,2.777,-0.244,80.000,9230.000,1.000
