EEG 1,EEG 2,EEG 3,EEG 4,EEG 5,EEG 6,EEG 7,EEG 8,Accelerometer X,Accelerometer Y,Accelerometer Z,Gyroscope X,Gyroscope Y,Gyroscope Z,Battery Level,Counter,Validation Indicator
-17.614,-10.523,-12.640,-18.121,-6.483,-0.366,-2.485,-7.727,-0.071,0.997,-0.038,0.671,3.174,-0.061,80.000,8185.000,1.000
-16.374,-9.338,-11.092,-15.672,-5.130,2.462,0.542,-4.579,-0.070,0.997,-0.038,0.702,3.265,-0.031,80.000,8186.000,1.000
-15.454,-8.716,-10.182,-13.497,-5.037,3.209,2.018,-1.468,-0.069,0.999,-0.038,0.793,3.265,-0.153,80.000,8187.000,1.000
-14.841,-9.546,-9.794,-12.238,-5.571,2.081,1.398,0.288,-0.071,1.002,-0.039,0.702,3.204,-0.244,80.000,8188.000,1.000
-14.205,-11.589,-9.560,-11.968,-6.046,-0.042,-0.904,0.265,-0.070,1.004,-0.040,0.702,3.296,-0.275,80.000,8189.000,1.000
-13.260,-13.184,-9.178,-11.986,-6.313,-2.128,-3.813,-0.683,-0.070,1.004,-0.040,0.702,3.174,-0.336,80.000,8190.000,1.000
-11.809,-12.647,-8.287,-11.305,-6.360,-3.441,-6.230,-1.306,-0.070,1.003,-0.038,0.732,3.204,-0.458,80.000,8191.000,1.000
-9.656,-9.943,-6.443,-9.515,-5.875,-3.819,-7.633,-1.228,-0.069,1.002,-0.042,0.641,3.204,-0.488,80.000,8192.000,1.000
-6.807,-6.651,-3.570,-7.110,-4.622,-3.639,-8.197,-1.129,-0.066,1.005,-0.042,0.702,3.174,-0.458,80.000,8193.000,1.000
-3.767,-4.308,-0.381,-4.954,-3.157,-3.554,-8.499,-1.771,-0.068,1.004,-0.039,0.610,3.113,-0.366,80.000,8194.000,1.000
-1.484,-3.213,1.846,-3.598,-2.736,-4.181,-9.164,-3.247,-0.068,1.003,-0.041,0.793,3.143,-0.458,80.000,8195.000,1.000
-0.759,-2.865,2.211,-3.115,-4.177,-5.768,-10.535,-5.242,-0.070,1.002,-0.038,0.854,3.143,-0.427,80.000,8196.000,1.000
-1.534,-2.950,1.028,-3.337,-6.851,-7.929,-12.415,-7.579,-0.068,1.002,-0.042,0.916,3.265,-0.427,80.000,8197.000,1.000
-2.735,-3.255,-0.257,-3.907,-8.967,-9.656,-13.992,-10.057,-0.067,0.999,-0.041,0.916,3.174,-0.488,80.000,8198.000,1.000
-2.918,-2.887,-0.056,-4.071,-8.911,-9.726,-14.110,-11.846,-0.066,0.998,-0.040,1.007,3.052,-0.366,80.000,8199.000,1.000
-1.353,-0.627,2.136,-2.962,-6.485,-7.602,-12.089,-11.777,-0.069,1.000,-0.044,1.099,3.082,-0.488,80.000,8200.000,1.000
1.417,3.455,5.359,-0.457,-2.926,-4.145,-8.562,-9.665,-0.070,0.999,-0.041,1.221,3.143,-0.519,80.000,8201.000,1.000
4.189,7.510,8.220,2.605,0.374,-1.041,-5.116,-6.789,-0.072,0.998,-0.042,1.404,3.113,-0.610,80.000,8202.000,1.000
6.223,9.655,10.226,5.336,3.098,0.725,-2.805,-4.558,-0.073,1.000,-0.042,1.465,3.113,-0.702,80.000,8203.000,1.000
7.619,9.859,11.831,7.657,5.768,1.575,-1.306,-2.971,-0.074,1.000,-0.040,1.434,2.991,-0.702,80.000,8204.000,1.000
8.772,9.732,13.459,10.089,8.673,2.574,0.426,-0.803,-0.075,1.001,-0.038,1.495,2.808,-0.824,80.000,8205.000,1.000
9.831,10.646,15.019,12.910,11.581,4.437,3.089,2.853,-0.077,1.003,-0.039,1.617,2.625,-0.977,80.000,8206.000,1.000
10.711,12.386,16.273,15.659,14.293,7.272,6.645,7.491,-0.075,1.004,-0.041,1.556,2.502,-1.068,80.000,8207.000,1.000
11.273,13.679,17.083,17.431,16.788,10.793,10.567,11.659,-0.076,1.004,-0.040,1.495,2.441,-1.190,80.000,8208.000,1.000
11.213,13.671,17.095,17.572,18.646,14.372,14.141,14.263,-0.076,1.005,-0.041,1.648,2.258,-1.129,80.000,8209.000,1.000
10.024,12.529,15.552,16.048,18.817,16.998,16.547,15.144,-0.074,1.007,-0.038,1.526,2.167,-1.038,80.000,8210.000,1.000
7.437,10.708,11.945,13.254,16.474,17.650,17.014,14.564,-0.073,1.010,-0.039,1.404,2.167,-1.038,80.000,8211.000,1.000
3.924,8.186,6.887,9.647,12.097,16.065,15.291,12.646,-0.073,1.012,-0.037,1.282,2.075,-1.038,80.000,8212.000,1.000
0.552,4.816,2.011,5.723,7.332,13.095,12.042,9.620,-0.070,1.012,-0.039,1.160,2.106,-1.007,80.000,8213.000,1.000
-1.709,1.186,-1.200,2.194,3.628,10.136,8.564,6.330,-0.070,1.012,-0.036,1.068,2.136,-0.885,80.000,8214.000,1.000
-2.628,-1.523,-2.535,-0.237,1.112,8.074,5.841,3.897,-0.070,1.014,-0.036,0.916,2.136,-0.702,80.000,8215.000,1.000
-2.770,-2.874,-3.039,-1.472,-1.097,6.673,3.844,2.681,-0.069,1.014,-0.037,0.854,2.136,-0.732,80.000,8216.000,1.000
-2.909,-3.859,-3.896,-2.146,-3.599,5.075,1.903,1.941,-0.068,1.013,-0.040,0.671,2.167,-0.702,80.000,8217.000,1.000
-3.390,-5.759,-5.408,-2.984,-6.041,2.806,-0.326,0.809,-0.068,1.010,-0.042,0.549,2.228,-0.519,80.000,8218.000,1.000
-4.043,-8.452,-7.036,-4.035,-7.724,0.231,-2.416,-0.610,-0.067,1.009,-0.037,0.427,2.228,-0.366,80.000,8219.000,1.000
-4.514,-10.312,-8.124,-4.641,-8.487,-1.901,-3.678,-1.405,-0.069,1.006,-0.039,0.366,2.319,-0.305,80.000,8220.000,1.000
-4.505,-9.982,-8.385,-4.203,-8.711,-3.229,-3.991,-1.130,-0.070,1.003,-0.040,0.214,2.441,-0.214,80.000,8221.000,1.000
-3.728,-7.857,-7.730,-2.825,-8.610,-4.030,-3.970,-0.538,-0.071,1.002,-0.035,0.214,2.350,-0.183,80.000,8222.000,1.000
-1.871,-5.452,-6.039,-1.131,-7.989,-4.809,-4.381,-0.878,-0.072,1.001,-0.036,0.275,2.289,-0.214,80.000,8223.000,1.000
1.057,-3.674,-3.459,0.281,-6.938,-5.920,-5.643,-2.731,-0.072,1.000,-0.037,0.214,2.319,-0.122,80.000,8224.000,1.000
4.400,-2.244,-0.784,1.113,-6.318,-7.537,-7.820,-5.704,-0.071,0.998,-0.034,0.275,2.289,-0.244,80.000,8225.000,1.000
7.204,-0.714,0.950,1.309,-7.006,-9.629,-10.721,-9.043,-0.072,0.996,-0.033,0.244,2.380,-0.305,80.000,8226.000,1.000
8.854,0.483,1.269,0.838,-8.818,-11.838,-13.864,-12.256,-0.071,0.996,-0.037,0.366,2.380,-0.275,80.000,8227.000,1.000
9.286,0.405,0.458,-0.369,-10.638,-13.550,-16.477,-15.093,-0.073,0.994,-0.033,0.519,2.319,-0.244,80.000,8228.000,1.000
8.788,-1.067,-0.959,-2.116,-11.601,-14.241,-17.774,-17.143,-0.073,0.993,-0.034,0.580,2.319,-0.366,80.000,8229.000,1.000
7.774,-2.788,-2.660,-3.734,-11.761,-13.847,-17.383,-17.764,-0.073,0.990,-0.036,0.671,2.289,-0.488,80.000,8230.000,1.000
6.647,-3.578,-4.429,-4.490,-11.594,-12.838,-15.597,-16.663,-0.074,0.990,-0.041,0.824,2.289,-0.610,80.000,8231.000,1.000
5.676,-3.543,-5.881,-4.252,-11.166,-11.807,-13.155,-14.426,-0.073,0.991,-0.040,1.007,2.289,-0.641,80.000,8232.000,1.000
4.948,-3.658,-6.503,-3.497,-10.060,-10.868,-10.580,-12.063,-0.071,0.992,-0.037,1.129,2.228,-0.732,80.000,8233.000,1.000
4.353,-4.296,-6.157,-2.756,-8.164,-9.584,-7.857,-10.041,-0.071,0.993,-0.035,1.221,2.136,-0.763,80.000,8234.000,1.000
3.596,-4.835,-5.528,-2.321,-6.334,-7.684,-4.997,-8.170,-0.071,0.995,-0.036,1.373,2.258,-0.885,80.000,8235.000,1.000
2.360,-4.797,-5.724,-2.468,-5.871,-5.632,-2.638,-6.440,-0.070,0.997,-0.033,1.404,2.319,-0.854,80.000,8236.000,1.000
0.605,-4.731,-7.243,-3.538,-7.163,-4.189,-1.645,-5.445,-0.071,0.999,-0.036,1.495,2.350,-0.854,80.000,8237.000,1.000
-1.301,-5.507,-9.430,-5.561,-9.244,-3.610,-2.221,-5.685,-0.069,1.001,-0.036,1.587,2.350,-0.885,80.000,8238.000,1.000
-2.845,-7.025,-11.176,-7.934,-10.937,-3.580,-3.741,-6.780,-0.071,1.000,-0.038,1.617,2.502,-0.824,80.000,8239.000,1.000
-3.803,-8.146,-11.996,-9.715,-12.020,-3.779,-5.389,-7.675,-0.073,1.003,-0.037,1.526,2.716,-0.732,80.000,8240.000,1.000
-4.358,-8.008,-12.173,-10.298,-12.909,-4.112,-6.668,-7.571,-0.073,1.004,-0.037,1.526,2.777,-0.702,80.000,8241.000,1.000
-4.890,-7.173,-12.160,-9.910,-13.664,-4.514,-7.428,-6.606,-0.072,1.004,-0.041,1.495,2.747,-0.580,80.000,8242.000,1.000
-5.743,-7.152,-12.254,-9.464,-13.934,-4.873,-7.718,-5.571,-0.073,1.006,-0.040,1.465,2.777,-0.641,80.000,8243.000,1.000
-7.055,-8.703,-12.680,-9.712,-13.690,-5.067,-7.562,-4.923,-0.074,1.006,-0.038,1.434,2.899,-0.702,80.000,8244.000,1.000
-8.703,-10.966,-13.637,-10.548,-13.494,-5.011,-6.879,-4.300,-0.075,1.006,-0.037,1.404,2.899,-0.702,80.000,8245.000,1.000
-10.308,-12.538,-15.046,-11.296,-13.857,-4.780,-5.720,-3.218,-0.074,1.006,-0.040,1.312,2.899,-0.549,80.000,8246.000,1.000
-11.296,-12.956,-16.262,-11.533,-14.485,-4.595,-4.463,-1.984,-0.075,1.004,-0.039,1.343,3.052,-0.366,80.000,8247.000,1.000
-11.140,-12.705,-16.314,-11.375,-14.475,-4.593,-3.601,-1.565,-0.076,1.005,-0.037,1.434,3.021,-0.458,80.000,8248.000,1.000
-9.754,-12.090,-14.687,-11.007,-13.341,-4.718,-3.397,-2.561,-0.076,1.008,-0.040,1.312,3.021,-0.397,80.000,8249.000,1.000
-7.608,-10.701,-11.770,-10.248,-11.589,-4.881,-3.823,-4.629,-0.077,1.008,-0.042,1.251,2.930,-0.366,80.000,8250.000,1.000
-5.304,-8.140,-8.360,-8.743,-10.040,-5.090,-4.718,-7.008,-0.076,1.007,-0.040,1.251,2.930,-0.244,80.000,8251.000,1.000
-2.902,-4.761,-4.721,-6.367,-8.686,-5.243,-5.747,-9.225,-0.076,1.006,-0.040,1.251,2.930,-0.092,80.000,8252.000,1.000
0.168,-1.238,-0.403,-3.275,-6.575,-4.887,-6.220,-10.976,-0.076,1.007,-0.040,1.160,2.838,0.031,80.000,8253.000,1.000
4.305,2.341,4.862,0.294,-2.968,-3.524,-5.331,-11.662,-0.077,1.007,-0.039,1.129,2.869,-0.031,80.000,8254.000,1.000
8.962,6.376,10.343,4.087,1.589,-1.266,-2.897,-10.629,-0.076,1.006,-0.041,1.129,2.899,-0.061,80.000,8255.000,1.000
12.865,10.631,14.665,7.673,5.673,0.995,0.208,-8.016,-0.076,1.005,-0.042,1.160,2.899,0.092,80.000,8256.000,1.000
14.980,13.724,16.970,10.388,8.363,2.238,2.627,-5.000,-0.075,1.005,-0.041,1.160,2.869,0.122,80.000,8257.000,1.000
15.242,14.264,17.544,11.714,9.894,2.179,3.675,-2.803,-0.075,1.002,-0.039,1.190,2.899,0.061,80.000,8258.000,1.000
14.401,12.401,17.285,11.743,10.871,1.402,3.791,-1.578,-0.075,1.003,-0.038,1.190,2.808,0.305,80.000,8259.000,1.000
13.209,9.758,16.689,11.061,11.222,0.574,3.767,-0.581,-0.075,1.004,-0.037,1.251,2.869,0.366,80.000,8260.000,1.000
11.861,7.691,15.587,10.149,10.346,-0.233,3.793,0.656,-0.072,1.005,-0.038,1.251,2.869,0.305,80.000,8261.000,1.000
10.249,6.101,13.819,9.068,8.212,-1.266,3.516,1.750,-0.074,1.004,-0.036,1.251,2.869,0.305,80.000,8262.000,1.000
8.456,4.202,11.754,7.751,5.797,-2.312,2.880,2.187,-0.075,1.004,-0.039,1.343,2.777,0.366,80.000,8263.000,1.000
6.679,1.996,9.895,6.393,4.155,-2.640,2.437,2.216,-0.073,1.003,-0.038,1.282,2.777,0.427,80.000,8264.000,1.000
4.778,0.383,8.152,5.359,3.317,-1.877,2.658,2.673,-0.071,1.002,-0.037,1.282,2.869,0.488,80.000,8265.000,1.000
2.333,-0.120,5.952,4.780,2.546,-0.519,3.335,4.030,-0.072,1.003,-0.039,1.282,2.808,0.641,80.000,8266.000,1.000
-0.715,-0.172,3.125,4.370,1.539,0.714,3.995,5.898,-0.070,1.003,-0.042,1.373,2.930,0.580,80.000,8267.000,1.000
-3.702,-0.815,0.306,3.736,0.817,1.712,4.565,7.532,-0.070,1.002,-0.042,1.434,2.991,0.610,80.000,8268.000,1.000
-5.669,-2.082,-1.652,2.900,0.858,2.900,5.364,8.719,-0.070,1.001,-0.043,1.556,3.021,0.732,80.000,8269.000,1.000
-6.174,-2.873,-2.493,2.365,1.293,4.511,6.543,9.936,-0.071,1.001,-0.041,1.526,2.991,0.793,80.000,8270.000,1.000
-5.701,-2.397,-2.682,2.503,1.277,6.122,7.682,11.523,-0.070,1.001,-0.040,1.434,3.082,0.824,80.000,8271.000,1.000
-5.193,-1.315,-2.803,3.017,0.527,7.040,8.032,12.990,-0.070,1.000,-0.040,1.526,3.082,0.824,80.000,8272.000,1.000
-5.185,-0.942,-2.960,3.226,-0.318,7.090,7.296,13.516,-0.069,1.001,-0.042,1.434,3.113,0.885,80.000,8273.000,1.000
-5.474,-1.499,-2.832,2.889,-0.390,6.902,6.135,13.035,-0.067,1.000,-0.041,1.526,3.204,0.977,80.000,8274.000,1.000
-5.525,-1.769,-2.192,2.518,0.541,7.300,5.712,12.417,-0.067,0.998,-0.044,1.648,3.143,0.946,80.000,8275.000,1.000
-4.970,-0.664,-1.217,2.747,2.003,8.454,6.600,12.360,-0.066,0.999,-0.041,1.617,3.204,0.916,80.000,8276.000,1.000
-3.667,1.426,-0.130,3.615,3.520,9.788,8.324,12.467,-0.068,0.999,-0.045,1.617,3.326,0.763,80.000,8277.000,1.000
-1.575,3.237,1.192,4.674,5.059,10.641,9.970,11.711,-0.069,0.999,-0.044,1.648,3.357,0.702,80.000,8278.000,1.000
1.146,4.151,2.896,5.549,6.562,10.709,10.911,9.575,-0.069,1.001,-0.044,1.740,3.326,0.549,80.000,8279.000,1.000
3.896,4.576,4.566,6.126,7.412,9.870,10.850,6.424,-0.068,1.002,-0.042,1.678,3.235,0.549,80.000,8280.000,1.000
5.830,4.989,5.459,6.353,6.897,8.050,9.600,2.904,-0.069,1.003,-0.043,1.648,3.174,0.427,80.000,8281.000,1.000
6.647,5.298,5.531,6.239,5.353,5.645,7.358,-0.540,-0.068,1.004,-0.043,1.678,3.235,0.305,80.000,8282.000,1.000
7.062,5.400,5.848,6.161,4.354,3.797,5.126,-3.383,-0.069,1.005,-0.042,1.587,3.174,0.214,80.000,8283.000,1.000
8.201,5.933,7.621,6.892,5.368,3.785,4.350,-4.658,-0.067,1.006,-0.044,1.526,3.235,0.214,80.000,8284.000,1.000
10.587,7.967,11.006,9.157,8.439,6.043,5.890,-3.349,-0.067,1.007,-0.044,1.434,3.326,0.214,80.000,8285.000,1.000
13.827,11.776,15.043,12.960,12.395,9.836,9.316,0.645,-0.065,1.009,-0.043,1.251,3.296,0.275,80.000,8286.000,1.000
17.087,16.095,18.566,17.270,16.045,13.779,13.163,5.972,-0.065,1.009,-0.043,1.160,3.204,0.305,80.000,8287.000,1.000
19.696,18.986,20.915,20.514,18.766,16.628,15.910,10.590,-0.063,1.009,-0.042,1.068,3.235,0.214,80.000,8288.000,1.000
21.278,19.473,21.832,21.595,20.126,17.732,16.853,13.225,-0.063,1.009,-0.043,0.885,3.265,0.122,80.000,8289.000,1.000
21.503,18.059,21.017,20.472,19.497,16.941,16.187,14.003,-0.062,1.009,-0.043,0.763,3.387,0.092,80.000,8290.000,1.000
20.133,15.610,18.223,17.862,16.525,14.371,14.471,13.732,-0.063,1.005,-0.044,0.610,3.296,0.244,80.000,8291.000,1.000
17.476,12.295,13.910,14.614,11.930,10.506,12.280,12.955,-0.062,1.008,-0.043,0.549,3.479,0.153,80.000,8292.000,1.000
14.498,8.015,9.409,11.411,7.381,6.405,10.275,11.910,-0.064,1.008,-0.045,0.519,3.387,-0.031,80.000,8293.000,1.000
12.203,3.519,6.053,8.855,4.298,3.402,9.194,11.058,-0.065,1.006,-0.044,0.336,3.448,-0.092,80.000,8294.000,1.000
10.927,0.454,4.246,7.503,2.935,2.430,9.494,11.165,-0.064,1.007,-0.043,0.305,3.418,-0.031,80.000,8295.000,1.000
10.293,-0.023,3.525,7.555,2.754,3.577,10.987,12.568,-0.064,1.006,-0.043,0.183,3.357,-0.031,80.000,8296.000,1.000
9.690,1.516,3.311,8.482,3.346,6.168,12.891,14.531,-0.065,1.006,-0.044,0.092,3.418,-0.061,80.000,8297.000,1.000
8.710,3.342,3.380,9.266,4.670,9.298,14.388,15.752,-0.066,1.003,-0.044,0.031,3.357,-0.153,80.000,8298.000,1.000
7.253,4.367,3.664,9.194,6.495,12.318,15.171,15.615,-0.066,1.002,-0.045,0.000,3.296,-0.031,80.000,8299.000,1.000
5.340,4.862,3.793,8.232,7.946,14.829,15.320,14.513,-0.066,1.000,-0.043,0.061,3.143,-0.214,80.000,8300.000,1.000
3.023,5.339,3.171,6.627,7.983,16.413,14.811,12.934,-0.067,1.001,-0.038,0.122,3.082,-0.244,80.000,8301.000,1.000
0.646,5.471,1.687,4.570,6.485,16.803,13.561,10.844,-0.069,1.000,-0.040,0.122,3.052,-0.366,80.000,8302.000,1.000
-1.075,4.605,0.056,2.327,4.510,16.295,11.886,8.179,-0.068,1.000,-0.036,0.183,3.021,-0.397,80.000,8303.000,1.000
-1.616,2.911,-0.917,0.297,3.115,15.492,10.378,5.403,-0.068,1.001,-0.037,0.153,2.899,-0.488,80.000,8304.000,1.000
-1.234,1.399,-1.290,-1.267,2.166,14.503,9.195,3.157,-0.068,1.000,-0.035,0.183,2.625,-0.610,80.000,8305.000,1.000
-0.779,0.796,-1.782,-2.419,0.796,12.789,7.848,1.557,-0.068,1.000,-0.037,0.305,2.625,-0.671,80.000,8306.000,1.000
-0.884,0.828,-2.620,-3.283,-1.065,10.011,5.962,0.171,-0.069,1.001,-0.038,0.488,2.533,-0.793,80.000,8307.000,1.000
-1.467,0.778,-3.117,-3.818,-2.326,6.647,3.925,-1.341,-0.070,1.001,-0.038,0.519,2.502,-0.793,80.000,8308.000,1.000
-2.001,0.514,-2.547,-3.827,-2.054,3.545,2.492,-2.785,-0.070,1.003,-0.039,0.580,2.380,-0.793,80.000,8309.000,1.000
-1.993,0.757,-0.987,-3.074,-0.562,1.190,1.977,-3.639,-0.068,1.001,-0.040,0.671,2.380,-0.885,80.000,8310.000,1.000
-1.093,2.277,1.027,-1.428,1.219,-0.380,2.106,-3.624,-0.070,1.000,-0.037,0.824,2.319,-0.854,80.000,8311.000,1.000
0.941,5.013,3.369,1.007,3.096,-1.113,2.559,-2.976,-0.071,1.003,-0.037,0.854,2.197,-0.824,80.000,8312.000,1.000
4.155,8.282,6.466,3.950,5.811,-0.647,3.440,-2.039,-0.072,1.003,-0.036,0.824,2.106,-0.854,80.000,8313.000,1.000
8.278,11.768,10.549,7.216,9.857,1.394,5.142,-0.623,-0.072,1.003,-0.035,0.793,2.014,-0.824,80.000,8314.000,1.000
12.622,15.736,14.964,10.746,14.484,4.765,7.773,1.897,-0.071,1.003,-0.035,0.824,1.953,-0.824,80.000,8315.000,1.000
16.166,20.003,18.446,14.223,18.189,8.405,10.760,5.684,-0.071,1.003,-0.034,0.946,1.831,-0.702,80.000,8316.000,1.000
18.033,23.267,20.119,16.912,20.127,11.155,13.187,9.952,-0.071,1.005,-0.037,0.916,1.862,-0.763,80.000,8317.000,1.000
17.999,24.072,20.084,18.142,20.692,12.673,14.562,13.611,-0.071,1.006,-0.037,1.099,1.801,-0.793,80.000,8318.000,1.000
16.452,22.383,19.005,17.906,20.665,13.481,15.075,16.189,-0.072,1.005,-0.040,1.099,1.770,-0.732,80.000,8319.000,1.000
13.904,19.667,17.253,16.753,20.065,14.058,14.997,17.771,-0.073,1.006,-0.037,1.007,1.678,-0.763,80.000,8320.000,1.000
10.708,17.211,14.629,15.048,18.134,14.081,13.992,18.118,-0.071,1.006,-0.034,1.068,1.648,-0.793,80.000,8321.000,1.000
7.279,14.890,11.095,12.685,14.567,12.885,11.498,16.491,-0.073,1.005,-0.036,1.007,1.587,-0.671,80.000,8322.000,1.000
4.319,11.988,7.477,9.676,10.367,10.612,7.817,12.724,-0.071,1.005,-0.039,1.007,1.556,-0.610,80.000,8323.000,1.000
2.512,8.748,4.969,6.639,7.064,8.424,4.326,8.047,-0.070,1.002,-0.039,0.977,1.465,-0.641,80.000,8324.000,1.000
1.896,6.367,3.900,4.353,5.223,7.378,2.304,4.309,-0.070,1.002,-0.036,1.099,1.526,-0.488,80.000,8325.000,1.000
1.714,5.533,3.449,2.972,4.241,7.482,1.875,2.430,-0.068,1.001,-0.039,1.190,1.617,-0.580,80.000,8326.000,1.000
1.061,5.531,2.701,1.891,3.509,8.061,2.281,1.879,-0.066,0.999,-0.040,1.373,1.648,-0.519,80.000,8327.000,1.000
-0.331,5.076,1.554,0.404,3.094,8.635,2.852,1.578,-0.068,0.999,-0.039,1.282,1.587,-0.488,80.000,8328.000,1.000
-2.016,3.824,0.464,-1.569,3.182,9.222,3.491,1.139,-0.068,1.000,-0.039,1.312,1.740,-0.336,80.000,8329.000,1.000
-3.485,2.658,-0.376,-3.417,3.372,9.905,4.377,1.082,-0.067,1.001,-0.042,1.404,1.801,-0.336,80.000,8330.000,1.000
-4.775,2.249,-1.345,-4.596,2.873,10.270,5.305,1.765,-0.067,1.002,-0.039,1.404,1.892,-0.366,80.000,8331.000,1.000
-6.416,1.754,-2.992,-5.399,1.274,9.433,5.478,2.426,-0.066,1.002,-0.039,1.556,1.801,-0.336,80.000,8332.000,1.000
-8.763,-0.361,-5.417,-6.655,-1.053,6.806,4.178,1.753,-0.067,1.002,-0.042,1.648,1.770,-0.336,80.000,8333.000,1.000
-11.440,-4.231,-8.066,-8.587,-3.303,2.793,1.625,-0.537,-0.067,1.003,-0.041,1.617,1.953,-0.366,80.000,8334.000,1.000
-13.578,-8.004,-10.094,-10.338,-4.860,-1.411,-1.063,-3.219,-0.064,1.003,-0.039,1.648,2.136,-0.366,80.000,8335.000,1.000
-14.466,-9.622,-10.864,-10.837,-5.466,-4.706,-2.856,-4.886,-0.064,1.002,-0.041,1.617,2.197,-0.183,80.000,8336.000,1.000
-13.797,-8.702,-10.049,-9.822,-4.892,-6.651,-3.497,-5.320,-0.064,1.001,-0.044,1.648,2.289,-0.397,80.000,8337.000,1.000
-11.484,-6.332,-7.539,-7.796,-2.838,-7.280,-3.217,-5.212,-0.064,1.003,-0.042,1.526,2.289,-0.397,80.000,8338.000,1.000
-7.639,-3.485,-3.642,-5.292,0.508,-6.824,-2.264,-4.951,-0.064,1.004,-0.041,1.587,2.441,-0.153,80.000,8339.000,1.000
-2.821,-0.276,0.696,-2.454,4.085,-5.785,-0.943,-4.217,-0.066,1.004,-0.040,1.556,2.502,-0.275,80.000,8340.000,1.000
1.986,3.245,4.327,0.714,6.661,-4.922,0.189,-2.721,-0.067,1.002,-0.038,1.526,2.625,-0.336,80.000,8341.000,1.000
5.899,6.268,6.759,3.969,7.972,-4.809,0.572,-0.906,-0.066,1.004,-0.039,1.587,2.808,-0.397,80.000,8342.000,1.000
8.678,7.823,8.510,6.949,8.912,-5.289,0.169,0.443,-0.067,1.003,-0.041,1.465,2.808,-0.336,80.000,8343.000,1.000
10.670,8.125,10.492,9.633,10.479,-5.473,-0.397,1.175,-0.068,1.004,-0.040,1.465,2.869,-0.397,80.000,8344.000,1.000
12.256,8.652,13.065,12.360,12.722,-4.443,-0.424,1.941,-0.069,1.005,-0.039,1.465,3.021,-0.397,80.000,8345.000,1.000
13.447,10.525,15.715,15.236,14.862,-2.029,0.142,3.232,-0.067,1.005,-0.038,1.343,3.113,-0.397,80.000,8346.000,1.000
13.979,13.120,17.583,17.658,16.233,1.117,0.713,4.584,-0.067,1.003,-0.038,1.190,3.235,-0.366,80.000,8347.000,1.000
13.681,14.762,18.150,18.672,16.766,4.136,0.769,5.090,-0.068,1.003,-0.037,1.221,3.143,-0.519,80.000,8348.000,1.000
12.671,14.625,17.404,17.868,16.572,6.519,0.419,4.558,-0.069,0.999,-0.039,1.190,3.113,-0.519,80.000,8349.000,1.000
11.148,13.490,15.573,15.778,15.477,8.162,0.192,3.781,-0.069,1.002,-0.039,1.007,3.174,-0.427,80.000,8350.000,1.000
9.146,12.507,12.951,13.291,13.318,9.136,0.417,3.545,-0.068,1.003,-0.037,1.068,3.174,-0.366,80.000,8351.000,1.000
6.567,11.682,9.925,10.753,10.498,9.559,0.921,3.611,-0.068,1.003,-0.040,1.099,3.235,-0.397,80.000,8352.000,1.000
3.382,10.041,6.879,7.828,7.847,9.632,1.386,3.070,-0.068,1.003,-0.038,1.007,3.204,-0.275,80.000,8353.000,1.000
-0.238,7.211,3.978,4.248,5.867,9.695,1.885,1.695,-0.068,1.003,-0.035,1.099,3.113,-0.244,80.000,8354.000,1.000
-3.934,4.183,1.123,0.469,4.309,10.038,2.795,0.439,-0.069,1.003,-0.038,1.068,3.326,-0.305,80.000,8355.000,1.000
-7.271,2.156,-1.774,-2.667,2.618,10.595,4.182,0.327,-0.071,1.003,-0.038,1.038,3.357,-0.214,80.000,8356.000,1.000
-9.896,1.070,-4.491,-4.747,0.754,10.995,5.591,1.277,-0.072,1.003,-0.037,1.099,3.357,-0.214,80.000,8357.000,1.000
-11.679,-0.162,-6.609,-6.066,-0.716,10.959,6.535,2.334,-0.071,1.003,-0.038,1.129,3.387,-0.244,80.000,8358.000,1.000
-12.787,-2.074,-7.919,-7.065,-1.343,10.565,7.029,2.879,-0.073,1.002,-0.039,1.068,3.235,-0.153,80.000,8359.000,1.000
-13.682,-3.904,-8.648,-7.792,-1.377,10.055,7.468,3.164,-0.073,1.003,-0.039,0.977,3.326,-0.092,80.000,8360.000,1.000
-14.987,-4.851,-9.347,-8.186,-1.550,9.321,7.926,3.483,-0.071,1.004,-0.036,0.854,3.265,-0.122,80.000,8361.000,1.000
-16.971,-5.445,-10.419,-8.599,-2.316,7.847,7.906,3.364,-0.073,1.003,-0.035,1.007,3.265,0.031,80.000,8362.000,1.000
-19.052,-6.916,-11.681,-9.513,-3.372,5.364,7.041,2.165,-0.074,1.003,-0.034,1.007,3.052,-0.092,80.000,8363.000,1.000
-20.150,-9.464,-12.583,-10.827,-4.144,2.267,5.665,0.173,-0.073,1.004,-0.036,1.099,3.021,0.000,80.000,8364.000,1.000
-19.704,-11.876,-12.922,-11.839,-4.658,-0.885,4.350,-1.477,-0.075,1.002,-0.041,1.038,2.991,0.153,80.000,8365.000,1.000
-18.126,-12.968,-13.010,-11.954,-5.509,-4.068,3.050,-2.024,-0.074,1.003,-0.039,1.099,2.991,0.153,80.000,8366.000,1.000
-16.123,-12.867,-12.994,-11.152,-6.895,-7.687,1.091,-1.839,-0.073,1.004,-0.040,1.068,2.899,0.214,80.000,8367.000,1.000
-13.920,-12.501,-12.374,-9.722,-8.139,-11.873,-1.998,-1.790,-0.073,1.003,-0.037,1.160,2.716,0.397,80.000,8368.000,1.000
-11.377,-12.193,-10.548,-7.810,-8.448,-16.168,-5.932,-2.186,-0.074,1.002,-0.039,1.160,2.655,0.366,80.000,8369.000,1.000
-8.561,-11.282,-7.659,-5.357,-7.827,-19.864,-9.922,-2.550,-0.073,1.002,-0.037,1.129,2.625,0.366,80.000,8370.000,1.000
-5.861,-9.239,-4.576,-2.465,-6.919,-22.435,-13.301,-2.406,-0.073,1.003,-0.038,1.190,2.655,0.366,80.000,8371.000,1.000
-3.643,-6.727,-2.117,0.260,-6.160,-23.671,-15.849,-2.109,-0.071,1.002,-0.037,1.282,2.533,0.366,80.000,8372.000,1.000
-1.940,-5.045,-0.482,1.959,-5.418,-23.448,-17.535,-2.580,-0.070,1.001,-0.038,1.312,2.563,0.336,80.000,8373.000,1.000
-0.552,-4.559,0.554,2.242,-4.470,-21.595,-18.096,-4.157,-0.071,1.000,-0.039,1.343,2.563,0.366,80.000,8374.000,1.000
0.636,-4.254,1.104,1.507,-3.561,-18.218,-17.238,-6.101,-0.071,1.001,-0.040,1.312,2.563,0.275,80.000,8375.000,1.000
1.579,-2.979,1.113,0.507,-3.116,-13.947,-15.142,-7.386,-0.070,1.000,-0.040,1.434,2.441,0.366,80.000,8376.000,1.000
2.347,-0.713,0.866,-0.230,-2.902,-9.542,-12.346,-7.616,-0.069,0.999,-0.040,1.465,2.411,0.366,80.000,8377.000,1.000
3.161,1.662,1.091,-0.568,-2.017,-5.358,-9.186,-7.041,-0.069,1.002,-0.041,1.465,2.472,0.336,80.000,8378.000,1.000
3.998,3.502,2.214,-0.639,-0.040,-1.438,-5.746,-6.010,-0.069,1.003,-0.038,1.343,2.472,0.366,80.000,8379.000,1.000
4.341,4.926,3.691,-0.674,2.191,2.045,-2.264,-4.714,-0.066,1.004,-0.041,1.404,2.350,0.275,80.000,8380.000,1.000
3.556,6.092,4.348,-1.022,3.261,4.633,0.593,-3.557,-0.067,1.004,-0.041,1.526,2.411,0.397,80.000,8381.000,1.000
1.532,6.364,3.381,-2.145,2.513,5.905,2.006,-3.425,-0.069,1.004,-0.038,1.465,2.441,0.275,80.000,8382.000,1.000
-1.084,4.865,1.038,-4.206,0.582,6.048,1.782,-4.935,-0.069,1.005,-0.038,1.587,2.441,0.214,80.000,8383.000,1.000
-3.339,1.902,-1.670,-6.594,-1.291,6.005,0.844,-7.361,-0.068,1.004,-0.038,1.465,2.441,0.092,80.000,8384.000,1.000
-4.715,-0.896,-3.976,-8.254,-2.444,6.680,0.504,-8.938,-0.068,1.002,-0.038,1.373,2.533,0.092,80.000,8385.000,1.000
-5.379,-2.215,-5.879,-8.627,-3.134,8.009,1.232,-8.486,-0.069,1.001,-0.040,1.465,2.563,0.153,80.000,8386.000,1.000
-5.805,-2.396,-7.620,-8.104,-3.733,9.132,2.499,-6.372,-0.068,1.005,-0.040,1.404,2.625,-0.061,80.000,8387.000,1.000
-6.296,-2.824,-9.086,-7.552,-4.150,9.328,3.631,-3.864,-0.068,1.005,-0.037,1.495,2.533,-0.031,80.000,8388.000,1.000
-6.845,-4.233,-10.007,-7.508,-4.272,8.489,4.419,-1.836,-0.068,1.004,-0.039,1.404,2.594,-0.061,80.000,8389.000,1.000
-7.321,-6.003,-10.481,-7.779,-4.466,6.859,4.954,-0.240,-0.067,1.003,-0.040,1.373,2.625,-0.153,80.000,8390.000,1.000
-7.595,-7.156,-10.856,-7.759,-5.155,4.619,5.196,1.298,-0.068,1.001,-0.042,1.312,2.594,-0.061,80.000,8391.000,1.000
-7.383,-7.525,-11.045,-7.013,-5.999,1.864,4.937,2.736,-0.068,1.002,-0.040,1.312,2.655,-0.092,80.000,8392.000,1.000
-6.115,-7.449,-10.200,-5.383,-5.868,-1.024,4.232,3.836,-0.068,1.003,-0.042,1.373,2.625,-0.183,80.000,8393.000,1.000
-3.306,-6.698,-7.420,-2.668,-3.876,-3.321,3.634,4.907,-0.066,1.004,-0.042,1.373,2.747,-0.183,80.000,8394.000,1.000
0.764,-4.544,-2.911,1.251,-0.498,-4.654,3.588,6.680,-0.067,1.003,-0.042,1.343,2.686,-0.122,80.000,8395.000,1.000
4.909,-1.095,1.817,5.810,2.588,-5.643,3.631,9.187,-0.067,1.003,-0.042,1.343,2.716,-0.122,80.000,8396.000,1.000
7.782,2.020,5.066,9.672,3.936,-7.445,2.593,11.257,-0.067,1.001,-0.042,1.373,2.777,-0.061,80.000,8397.000,1.000
8.755,2.828,6.118,11.572,3.373,-10.615,-0.200,11.502,-0.067,1.000,-0.041,1.404,2.808,-0.092,80.000,8398.000,1.000
8.053,0.879,5.298,11.235,1.586,-14.597,-4.156,9.703,-0.068,1.003,-0.038,1.404,2.930,-0.214,80.000,8399.000,1.000
6.189,-2.420,3.198,9.338,-0.963,-18.309,-8.033,6.860,-0.068,1.002,-0.035,1.495,2.899,-0.275,80.000,8400.000,1.000
3.565,-5.388,0.215,6.685,-4.271,-21.027,-11.113,3.913,-0.068,1.001,-0.038,1.495,2.899,-0.336,80.000,8401.000,1.000
0.690,-7.546,-3.105,3.716,-7.982,-22.473,-13.364,0.931,-0.069,1.000,-0.040,1.465,2.930,-0.305,80.000,8402.000,1.000
-1.635,-9.316,-5.777,0.744,-10.954,-22.360,-14.685,-2.308,-0.069,1.000,-0.040,1.556,2.869,-0.305,80.000,8403.000,1.000
-2.699,-10.726,-6.942,-1.711,-12.127,-20.372,-14.583,-5.364,-0.069,1.001,-0.040,1.617,2.869,-0.305,80.000,8404.000,1.000
-2.367,-11.004,-6.642,-3.051,-11.553,-16.654,-12.739,-7.197,-0.069,1.002,-0.040,1.617,2.869,-0.244,80.000,8405.000,1.000
-1.111,-9.642,-5.732,-3.071,-10.185,-12.040,-9.595,-7.223,-0.071,1.003,-0.040,1.678,2.899,-0.244,80.000,8406.000,1.000
0.397,-7.414,-5.034,-2.281,-8.771,-7.636,-6.194,-6.103,-0.069,1.003,-0.041,1.617,2.838,-0.305,80.000,8407.000,1.000
1.730,-5.760,-4.681,-1.563,-7.295,-4.087,-3.416,-5.168,-0.070,1.003,-0.042,1.587,2.777,-0.305,80.000,8408.000,1.000
2.761,-5.202,-4.353,-1.438,-5.525,-1.311,-1.403,-5.056,-0.071,1.001,-0.041,1.678,2.808,-0.244,80.000,8409.000,1.000
3.382,-4.900,-3.971,-1.755,-3.774,0.996,0.193,-5.265,-0.070,1.003,-0.042,1.678,2.716,-0.214,80.000,8410.000,1.000
3.413,-3.935,-3.856,-2.113,-2.718,2.789,1.574,-5.070,-0.071,1.003,-0.039,1.709,2.808,-0.214,80.000,8411.000,1.000
2.857,-2.592,-4.155,-2.388,-2.496,3.830,2.629,-4.460,-0.071,1.002,-0.040,1.740,2.777,-0.244,80.000,8412.000,1.000
1.991,-2.034,-4.522,-2.780,-2.474,4.208,3.282,-3.955,-0.070,1.000,-0.040,1.740,2.747,-0.366,80.000,8413.000,1.000
1.063,-2.850,-4.619,-3.471,-2.173,4.351,3.641,-3.837,-0.070,1.000,-0.039,1.831,2.747,-0.214,80.000,8414.000,1.000
0.028,-4.382,-4.716,-4.379,-2.079,4.473,3.687,-3.909,-0.067,1.001,-0.043,1.923,2.686,-0.092,80.000,8415.000,1.000
-1.334,-5.659,-5.450,-5.303,-3.104,4.246,3.086,-4.001,-0.070,1.001,-0.042,1.923,2.716,-0.153,80.000,8416.000,1.000
-3.065,-6.568,-6.983,-6.183,-5.283,3.205,1.540,-4.367,-0.068,1.001,-0.041,1.953,2.777,0.000,80.000,8417.000,1.000
-4.728,-7.563,-8.564,-6.911,-7.378,1.404,-0.612,-5.199,-0.067,1.001,-0.043,1.953,2.686,-0.061,80.000,8418.000,1.000
-5.475,-8.419,-9.013,-6.904,-7.936,-0.509,-2.369,-5.856,-0.067,1.002,-0.042,2.045,2.655,0.000,80.000,8419.000,1.000
-4.671,-8.050,-7.693,-5.345,-6.642,-1.957,-2.930,-5.162,-0.070,1.003,-0.040,1.892,2.594,0.061,80.000,8420.000,1.000
-2.404,-5.870,-4.931,-2.045,-4.424,-3.127,-2.609,-2.736,-0.068,1.003,-0.040,1.892,2.686,0.092,80.000,8421.000,1.000
0.709,-2.810,-1.445,2.155,-2.297,-4.797,-2.640,0.296,-0.070,1.005,-0.041,1.801,2.594,0.061,80.000,8422.000,1.000
4.033,-0.467,2.319,5.954,-0.494,-7.445,-4.006,2.214,-0.070,1.003,-0.044,1.923,2.655,0.122,80.000,8423.000,1.000
7.126,0.600,6.101,8.509,1.142,-10.680,-6.573,2.234,-0.069,1.004,-0.046,1.892,2.655,0.000,80.000,8424.000,1.000
9.652,1.267,9.367,9.799,2.333,-13.628,-9.374,0.946,-0.069,1.006,-0.042,1.770,2.655,0.122,80.000,8425.000,1.000
11.299,2.459,11.352,10.180,2.435,-15.680,-11.513,-0.661,-0.070,1.005,-0.041,1.648,2.655,0.092,80.000,8426.000,1.000
11.914,3.888,11.715,9.797,1.345,-16.642,-12.616,-2.203,-0.068,1.006,-0.042,1.556,2.655,0.122,80.000,8427.000,1.000
11.659,4.578,10.962,8.580,-0.099,-16.303,-12.549,-3.761,-0.070,1.006,-0.042,1.526,2.594,0.122,80.000,8428.000,1.000
10.845,4.325,9.982,6.708,-0.888,-14.261,-11.074,-5.033,-0.068,1.006,-0.045,1.495,2.686,0.122,80.000,8429.000,1.000
9.586,4.025,9.182,4.758,-0.820,-10.389,-8.007,-5.122,-0.070,1.006,-0.044,1.465,2.655,0.031,80.000,8430.000,1.000
7.810,4.475,8.340,3.314,-0.402,-5.246,-3.576,-3.365,-0.069,1.005,-0.046,1.373,2.563,0.122,80.000,8431.000,1.000
5.598,5.311,7.221,2.502,0.079,0.194,1.591,-0.170,-0.067,1.006,-0.045,1.282,2.533,0.122,80.000,8432.000,1.000
3.073,5.257,5.758,1.750,0.702,4.928,6.617,3.038,-0.068,1.004,-0.044,1.251,2.533,0.153,80.000,8433.000,1.000
-0.127,3.210,3.467,-0.013,0.947,7.919,10.362,4.646,-0.068,1.005,-0.044,1.343,2.625,0.214,80.000,8434.000,1.000
-4.803,-0.923,-0.660,-3.650,-0.604,8.244,11.646,3.769,-0.067,1.005,-0.044,1.343,2.594,0.275,80.000,8435.000,1.000
-11.372,-6.389,-7.185,-9.155,-4.998,5.666,9.757,0.471,-0.067,1.007,-0.043,1.312,2.594,0.214,80.000,8436.000,1.000
-19.080,-12.307,-15.203,-15.625,-11.483,1.082,4.957,-4.620,-0.068,1.004,-0.046,1.251,2.533,0.275,80.000,8437.000,1.000
-26.027,-17.747,-22.396,-21.615,-17.629,-3.635,-1.296,-10.446,-0.066,1.002,-0.043,1.343,2.686,0.244,80.000,8438.000,1.000
-30.114,-21.296,-26.350,-25.562,-21.048,-6.463,-6.776,-15.382,-0.065,1.004,-0.042,1.404,2.686,0.153,80.000,8439.000,1.000
-30.278,-21.393,-26.081,-26.326,-20.975,-6.260,-9.597,-17.677,-0.065,1.002,-0.044,1.434,2.747,0.122,80.000,8440.000,1.000
-26.926,-17.596,-22.378,-23.758,-18.229,-3.276,-9.184,-16.542,-0.067,1.002,-0.042,1.312,2.747,0.153,80.000,8441.000,1.000
-21.374,-11.403,-16.866,-18.880,-14.052,1.117,-6.389,-12.853,-0.065,1.003,-0.044,1.373,2.777,0.183,80.000,8442.000,1.000
-15.072,-5.395,-11.023,-13.405,-9.400,5.202,-2.770,-8.573,-0.065,1.004,-0.043,1.312,2.808,0.122,80.000,8443.000,1.000
-9.206,-1.308,-5.866,-8.772,-5.118,7.707,0.345,-5.286,-0.065,1.002,-0.046,1.282,2.838,0.153,80.000,8444.000,1.000
-4.649,0.868,-2.088,-5.514,-2.216,8.030,2.210,-3.385,-0.065,1.000,-0.044,1.404,2.869,0.153,80.000,8445.000,1.000
-1.992,1.768,-0.160,-3.564,-1.548,5.918,2.302,-2.702,-0.065,0.998,-0.042,1.343,2.930,0.092,80.000,8446.000,1.000
-1.333,1.304,-0.079,-2.843,-3.019,1.466,0.245,-3.356,-0.064,0.997,-0.047,1.343,2.960,0.092,80.000,8447.000,1.000
-1.973,-0.855,-1.052,-3.172,-5.248,-4.303,-3.512,-5.401,-0.067,0.996,-0.048,1.465,3.113,0.092,80.000,8448.000,1.000
-2.755,-3.881,-1.889,-3.884,-6.474,-9.391,-7.365,-7.924,-0.064,0.998,-0.047,1.556,3.143,-0.031,80.000,8449.000,1.000
-2.965,-5.843,-1.962,-4.049,-5.954,-11.969,-9.504,-9.289,-0.063,1.000,-0.046,1.556,3.113,-0.061,80.000,8450.000,1.000
-2.852,-5.528,-1.671,-3.320,-4.375,-11.705,-9.376,-8.659,-0.064,1.003,-0.051,1.617,3.052,0.092,80.000,8451.000,1.000
-3.212,-3.810,-1.886,-2.408,-2.998,-9.830,-8.084,-7.055,-0.063,1.006,-0.048,1.465,3.113,0.061,80.000,8452.000,1.000
-4.462,-2.624,-2.961,-2.394,-2.521,-7.806,-7.181,-6.361,-0.063,1.007,-0.047,1.404,3.204,0.031,80.000,8453.000,1.000
-6.116,-2.708,-4.356,-3.491,-2.795,-6.088,-7.206,-7.265,-0.063,1.006,-0.045,1.434,3.235,0.031,80.000,8454.000,1.000
-7.308,-3.014,-5.301,-4.832,-3.491,-4.340,-7.633,-8.711,-0.065,1.006,-0.049,1.251,3.235,0.031,80.000,8455.000,1.000
-7.738,-2.479,-5.641,-5.552,-4.620,-2.534,-7.979,-9.407,-0.064,1.005,-0.047,1.373,3.235,0.122,80.000,8456.000,1.000
-7.837,-1.669,-5.797,-5.721,-6.191,-1.333,-8.415,-9.288,-0.063,1.003,-0.048,1.373,3.265,0.092,80.000,8457.000,1.000
-8.050,-2.059,-6.045,-6.027,-7.716,-1.316,-9.164,-9.146,-0.064,1.004,-0.048,1.373,3.357,0.061,80.000,8458.000,1.000
-8.330,-3.994,-6.203,-6.760,-8.465,-2.170,-9.721,-9.190,-0.062,1.003,-0.047,1.221,3.296,0.000,80.000,8459.000,1.000
-8.434,-6.084,-6.089,-7.438,-8.193,-2.913,-9.134,-8.577,-0.062,1.004,-0.047,1.190,3.357,0.244,80.000,8460.000,1.000
-8.314,-6.702,-5.829,-7.389,-7.230,-2.730,-6.959,-6.442,-0.061,1.002,-0.047,1.190,3.326,0.305,80.000,8461.000,1.000
-8.039,-5.621,-5.532,-6.450,-5.822,-1.404,-3.637,-2.977,-0.061,1.001,-0.050,1.251,3.448,0.092,80.000,8462.000,1.000
-7.655,-3.943,-5.037,-5.090,-3.850,0.827,0.012,0.739,-0.064,1.003,-0.046,1.099,3.387,0.122,80.000,8463.000,1.000
-7.188,-2.588,-4.161,-3.819,-1.303,3.611,3.446,3.897,-0.065,1.003,-0.044,1.190,3.235,0.031,80.000,8464.000,1.000
-6.681,-1.279,-2.990,-2.590,1.332,6.659,6.544,6.676,-0.067,1.004,-0.042,1.129,3.265,-0.183,80.000,8465.000,1.000
-6.247,0.628,-1.876,-1.062,3.341,9.546,9.124,9.524,-0.069,1.004,-0.041,1.038,3.174,-0.305,80.000,8466.000,1.000
-5.971,2.727,-1.123,0.640,4.395,11.586,10.598,12.039,-0.068,1.008,-0.041,0.977,3.021,-0.458,80.000,8467.000,1.000
-5.745,3.774,-0.687,1.834,4.770,12.240,10.387,13.100,-0.067,1.007,-0.044,0.916,2.930,-0.549,80.000,8468.000,1.000
-5.355,3.334,-0.281,1.995,4.897,11.616,8.576,12.128,-0.070,1.008,-0.043,0.854,2.838,-0.641,80.000,8469.000,1.000
-4.684,2.534,0.320,1.428,4.866,10.353,5.934,9.821,-0.067,1.010,-0.043,0.793,2.686,-0.641,80.000,8470.000,1.000
-3.597,2.852,1.249,1.115,4.607,9.074,3.300,7.450,-0.064,1.010,-0.042,0.610,2.625,-0.702,80.000,8471.000,1.000
-1.773,4.512,2.736,1.849,4.407,8.066,1.116,5.658,-0.066,1.011,-0.041,0.549,2.533,-0.793,80.000,8472.000,1.000
1.080,6.484,5.001,3.545,4.870,7.366,-0.508,4.191,-0.064,1.012,-0.042,0.366,2.472,-0.702,80.000,8473.000,1.000
4.781,7.904,7.828,5.480,6.202,6.933,-1.505,2.723,-0.064,1.009,-0.042,0.488,2.472,-0.732,80.000,8474.000,1.000
8.443,8.900,10.310,6.978,7.704,6.585,-1.877,1.491,-0.066,1.010,-0.041,0.244,2.441,-0.580,80.000,8475.000,1.000
10.775,9.793,11.242,7.619,8.211,5.814,-2.087,0.782,-0.064,1.011,-0.041,0.305,2.350,-0.671,80.000,8476.000,1.000
10.898,10.035,9.990,7.022,7.099,3.940,-3.048,0.167,-0.065,1.008,-0.040,0.275,2.380,-0.671,80.000,8477.000,1.000
8.984,8.624,6.987,4.929,4.777,0.743,-5.325,-1.171,-0.066,1.006,-0.042,0.153,2.411,-0.549,80.000,8478.000,1.000
5.970,5.465,3.286,1.603,2.076,-3.150,-8.461,-3.322,-0.067,1.004,-0.041,0.183,2.380,-0.458,80.000,8479.000,1.000
2.775,1.784,-0.347,-2.131,-0.661,-6.698,-11.406,-5.387,-0.064,1.002,-0.042,0.183,2.319,-0.458,80.000,8480.000,1.000
-0.110,-1.083,-3.767,-5.458,-3.632,-9.230,-13.512,-6.568,-0.063,1.002,-0.042,0.214,2.411,-0.336,80.000,8481.000,1.000
-2.470,-2.997,-6.980,-8.157,-6.825,-10.700,-14.877,-7.189,-0.064,1.001,-0.037,0.244,2.411,-0.275,80.000,8482.000,1.000
-4.141,-4.810,-9.675,-10.505,-9.614,-11.367,-15.795,-8.286,-0.065,1.000,-0.037,0.397,2.472,-0.244,80.000,8483.000,1.000
-4.978,-6.983,-11.435,-12.593,-11.289,-11.435,-16.130,-10.233,-0.065,0.999,-0.039,0.366,2.350,-0.183,80.000,8484.000,1.000
-4.842,-8.777,-12.137,-13.843,-11.663,-10.925,-15.294,-12.065,-0.067,0.996,-0.038,0.458,2.319,-0.214,80.000,8485.000,1.000
-3.612,-9.082,-11.895,-13.402,-10.925,-9.800,-12.804,-12.381,-0.065,0.997,-0.037,0.519,2.228,-0.214,80.000,8486.000,1.000
-1.330,-7.802,-10.702,-11.072,-9.103,-8.139,-8.839,-10.762,-0.066,0.995,-0.037,0.702,2.289,-0.244,80.000,8487.000,1.000
1.594,-5.966,-8.444,-7.695,-6.051,-6.110,-4.210,-8.034,-0.067,0.995,-0.038,0.793,2.319,-0.092,80.000,8488.000,1.000
4.359,-4.485,-5.378,-4.542,-2.060,-3.857,0.164,-5.220,-0.069,0.995,-0.037,1.007,2.197,-0.122,80.000,8489.000,1.000
6.049,-3.287,-2.373,-2.410,1.780,-1.582,3.662,-2.633,-0.067,0.992,-0.037,1.099,2.197,-0.183,80.000,8490.000,1.000
6.089,-1.935,-0.411,-1.377,4.217,0.307,5.909,-0.136,-0.065,0.995,-0.039,1.251,2.075,-0.305,80.000,8491.000,1.000
4.666,-0.610,0.227,-1.175,4.923,1.392,6.714,2.134,-0.067,0.996,-0.038,1.282,1.892,-0.366,80.000,8492.000,1.000
2.762,0.062,0.194,-1.477,4.728,1.671,6.303,3.803,-0.065,0.997,-0.037,1.404,1.862,-0.427,80.000,8493.000,1.000
1.594,0.114,0.449,-1.769,4.691,1.637,5.419,4.972,-0.064,0.999,-0.040,1.465,1.953,-0.488,80.000,8494.000,1.000
1.838,0.572,1.464,-1.296,5.126,1.842,4.933,6.418,-0.064,1.000,-0.041,1.465,1.953,-0.488,80.000,8495.000,1.000
3.262,2.268,3.003,0.435,5.642,2.357,5.154,8.680,-0.062,1.002,-0.040,1.434,2.014,-0.519,80.000,8496.000,1.000
5.122,4.616,4.573,3.069,5.943,2.742,5.571,11.178,-0.062,1.002,-0.042,1.495,1.923,-0.519,80.000,8497.000,1.000
6.865,6.179,5.998,5.616,6.324,2.644,5.491,12.721,-0.060,1.003,-0.042,1.434,1.984,-0.549,80.000,8498.000,1.000
8.278,6.309,7.359,7.273,7.199,2.229,4.825,12.802,-0.060,1.004,-0.041,1.373,2.075,-0.702,80.000,8499.000,1.000
9.082,5.656,8.429,7.869,8.287,1.824,3.983,12.021,-0.061,1.005,-0.042,1.343,2.228,-0.610,80.000,8500.000,1.000
8.870,5.089,8.654,7.623,8.774,1.392,3.191,11.245,-0.062,1.008,-0.042,1.282,2.228,-0.671,80.000,8501.000,1.000
7.658,4.611,7.884,6.769,8.321,0.629,2.256,10.674,-0.062,1.008,-0.042,1.282,2.319,-0.641,80.000,8502.000,1.000
6.140,3.584,6.682,5.432,7.397,-0.614,0.889,9.815,-0.062,1.005,-0.045,1.221,2.411,-0.671,80.000,8503.000,1.000
5.174,1.857,5.672,3.748,6.458,-2.216,-1.024,8.216,-0.063,1.005,-0.043,1.129,2.533,-0.671,80.000,8504.000,1.000
5.094,0.273,4.860,1.993,5.247,-3.969,-3.414,6.034,-0.063,1.004,-0.043,1.160,2.625,-0.641,80.000,8505.000,1.000
5.648,-0.166,3.925,0.504,3.352,-5.634,-6.008,3.836,-0.063,1.004,-0.042,1.190,2.686,-0.732,80.000,8506.000,1.000
6.463,0.561,3.007,-0.551,1.219,-6.833,-8.241,1.976,-0.064,1.004,-0.040,1.160,2.716,-0.702,80.000,8507.000,1.000
7.353,1.526,2.778,-1.286,0.002,-7.124,-9.461,0.364,-0.065,1.003,-0.046,1.129,2.808,-0.580,80.000,8508.000,1.000
8.245,2.026,3.672,-1.865,0.291,-6.274,-9.336,-1.089,-0.066,1.004,-0.046,1.129,2.930,-0.702,80.000,8509.000,1.000
9.013,2.384,5.329,-2.128,1.415,-4.467,-8.042,-2.013,-0.065,1.005,-0.046,1.160,2.899,-0.671,80.000,8510.000,1.000
9.452,3.301,6.926,-1.679,2.220,-2.251,-6.158,-1.931,-0.065,1.005,-0.044,1.190,2.991,-0.671,80.000,8511.000,1.000
9.443,4.634,7.933,-0.442,2.248,-0.265,-4.425,-1.068,-0.066,1.004,-0.046,1.312,2.930,-0.732,80.000,8512.000,1.000
9.147,5.406,8.439,1.084,1.923,1.083,-3.442,-0.398,-0.067,1.004,-0.047,1.251,2.960,-0.732,80.000,8513.000,1.000
8.891,5.025,8.753,2.249,1.668,1.684,-3.418,-0.696,-0.066,1.004,-0.045,1.221,2.960,-0.671,80.000,8514.000,1.000
8.721,3.936,8.769,2.755,1.170,1.489,-4.226,-1.830,-0.069,1.003,-0.043,1.282,2.930,-0.610,80.000,8515.000,1.000
8.270,2.846,8.003,2.670,-0.174,0.388,-5.625,-3.110,-0.068,1.004,-0.042,1.312,3.021,-0.610,80.000,8516.000,1.000
7.214,1.741,6.351,2.159,-2.206,-1.529,-7.308,-4.062,-0.066,1.005,-0.044,1.343,2.930,-0.610,80.000,8517.000,1.000
5.711,0.086,4.513,1.411,-3.854,-3.751,-8.829,-4.572,-0.068,1.003,-0.043,1.312,3.082,-0.610,80.000,8518.000,1.000
4.233,-2.105,3.436,0.803,-4.179,-5.552,-9.667,-4.397,-0.070,1.004,-0.043,1.312,3.082,-0.519,80.000,8519.000,1.000
3.067,-3.934,3.383,0.842,-3.364,-6.495,-9.551,-3.059,-0.071,1.004,-0.042,1.404,3.021,-0.519,80.000,8520.000,1.000
2.172,-4.585,3.776,1.713,-2.439,-6.712,-8.783,-0.550,-0.070,1.003,-0.043,1.434,3.021,-0.580,80.000,8521.000,1.000
1.531,-4.275,3.982,2.996,-2.076,-6.597,-8.002,2.175,-0.069,1.004,-0.045,1.495,2.930,-0.488,80.000,8522.000,1.000
1.363,-3.925,3.974,3.962,-2.043,-6.285,-7.611,3.790,-0.067,1.003,-0.044,1.526,2.960,-0.519,80.000,8523.000,1.000
1.845,-4.007,4.022,4.125,-1.945,-5.684,-7.616,3.671,-0.067,1.003,-0.045,1.526,2.838,-0.336,80.000,8524.000,1.000
2.769,-4.053,4.022,3.551,-2.012,-4.910,-7.882,2.300,-0.067,1.005,-0.045,1.434,2.899,-0.305,80.000,8525.000,1.000
3.612,-3.495,3.480,2.620,-2.721,-4.403,-8.266,0.656,-0.067,1.005,-0.045,1.556,2.899,-0.122,80.000,8526.000,1.000
3.930,-2.712,2.138,1.534,-3.880,-4.497,-8.489,-0.669,-0.068,1.007,-0.045,1.678,2.899,-0.061,80.000,8527.000,1.000
3.680,-2.688,0.414,0.221,-4.500,-4.928,-8.030,-1.586,-0.069,1.006,-0.043,1.556,2.838,0.092,80.000,8528.000,1.000
3.157,-3.574,-0.891,-1.190,-3.660,-4.860,-6.285,-1.887,-0.069,1.003,-0.047,1.526,2.808,0.183,80.000,8529.000,1.000
2.710,-4.170,-1.262,-2.076,-1.390,-3.560,-3.057,-1.010,-0.068,1.000,-0.048,1.526,2.838,0.153,80.000,8530.000,1.000
2.610,-3.175,-0.681,-1.711,1.483,-1.056,1.047,1.287,-0.068,1.001,-0.045,1.617,2.747,0.244,80.000,8531.000,1.000
3.182,-0.594,0.795,0.131,4.330,1.971,4.932,4.314,-0.068,1.000,-0.047,1.526,2.808,0.153,80.000,8532.000,1.000
4.786,2.432,3.280,2.989,7.182,4.845,7.833,6.834,-0.068,0.999,-0.046,1.556,2.808,0.183,80.000,8533.000,1.000
7.420,4.968,6.593,6.027,10.065,7.266,9.690,8.060,-0.069,1.000,-0.046,1.587,2.838,0.153,80.000,8534.000,1.000
10.432,7.062,9.794,8.536,12.302,9.121,10.738,8.117,-0.069,1.000,-0.045,1.648,2.777,0.061,80.000,8535.000,1.000
12.780,9.076,11.592,10.109,12.925,10.189,10.945,7.498,-0.069,1.000,-0.046,1.617,2.686,0.031,80.000,8536.000,1.000
13.643,10.639,11.341,10.457,11.694,10.204,10.040,6.290,-0.067,1.001,-0.049,1.678,2.563,0.031,80.000,8537.000,1.000
12.970,10.900,9.618,9.459,9.480,9.276,8.105,4.306,-0.067,1.002,-0.049,1.740,2.625,0.000,80.000,8538.000,1.000
11.478,9.828,7.754,7.616,7.546,8.076,5.976,1.977,-0.063,1.001,-0.050,1.740,2.533,0.183,80.000,8539.000,1.000
9.967,8.542,6.658,6.023,6.427,7.318,4.714,0.508,-0.064,1.001,-0.048,1.648,2.533,-0.031,80.000,8540.000,1.000
8.698,8.010,6.177,5.510,5.647,7.063,4.610,0.741,-0.064,1.001,-0.045,1.678,2.533,-0.031,80.000,8541.000,1.000
7.491,7.825,5.632,5.899,4.541,6.722,4.896,2.099,-0.062,1.005,-0.048,1.495,2.655,-0.031,80.000,8542.000,1.000
6.232,6.712,4.713,6.327,3.005,5.688,4.484,3.072,-0.063,1.006,-0.048,1.434,2.747,0.061,80.000,8543.000,1.000
5.088,4.203,3.698,6.281,1.396,3.942,2.968,2.808,-0.063,1.006,-0.047,1.251,2.869,0.092,80.000,8544.000,1.000
4.303,1.406,3.003,6.147,0.015,2.073,0.907,1.967,-0.067,1.007,-0.046,1.160,2.838,-0.031,80.000,8545.000,1.000
4.063,-0.046,2.851,6.715,-0.943,0.814,-0.767,1.861,-0.064,1.009,-0.046,1.068,2.930,-0.061,80.000,8546.000,1.000
4.609,0.496,3.446,8.334,-0.983,0.726,-1.372,3.069,-0.063,1.009,-0.050,0.946,2.960,-0.031,80.000,8547.000,1.000
6.186,2.468,5.044,10.594,0.635,2.211,-0.518,5.156,-0.063,1.007,-0.046,0.824,2.899,-0.214,80.000,8548.000,1.000
8.651,5.102,7.571,12.783,4.132,5.425,2.035,7.565,-0.060,1.008,-0.043,0.671,2.960,-0.366,80.000,8549.000,1.000
11.225,8.151,10.302,14.497,8.653,9.966,6.223,10.318,-0.061,1.006,-0.048,0.519,3.143,-0.336,80.000,8550.000,1.000
12.825,11.361,12.160,15.665,12.689,14.703,11.296,13.494,-0.060,1.007,-0.049,0.458,3.265,-0.397,80.000,8551.000,1.000
12.738,13.648,12.436,16.090,15.126,18.173,15.840,16.351,-0.061,1.007,-0.048,0.244,3.296,-0.366,80.000,8552.000,1.000
11.002,13.536,11.166,15.321,15.779,19.358,18.488,17.558,-0.062,1.006,-0.048,0.122,3.448,-0.275,80.000,8553.000,1.000
8.178,10.594,8.772,13.108,14.897,18.144,18.685,16.387,-0.061,1.005,-0.044,0.061,3.448,-0.397,80.000,8554.000,1.000
4.799,6.053,5.498,9.784,12.478,15.093,16.762,13.384,-0.063,1.004,-0.044,0.031,3.357,-0.397,80.000,8555.000,1.000
1.148,1.676,1.435,6.044,8.445,10.950,13.453,9.733,-0.063,1.005,-0.046,-0.031,3.387,-0.488,80.000,8556.000,1.000
-2.457,-1.790,-3.006,2.360,3.341,6.393,9.442,6.103,-0.064,1.004,-0.047,-0.092,3.448,-0.519,80.000,8557.000,1.000
-5.402,-4.755,-6.957,-1.207,-1.624,2.055,5.255,2.374,-0.065,1.003,-0.043,-0.122,3.357,-0.610,80.000,8558.000,1.000
-7.032,-7.528,-9.572,-4.525,-5.388,-1.484,1.423,-1.493,-0.065,1.003,-0.044,-0.153,3.296,-0.763,80.000,8559.000,1.000
-7.224,-9.575,-10.700,-7.068,-7.851,-3.973,-1.630,-4.871,-0.064,1.002,-0.042,-0.275,3.418,-0.763,80.000,8560.000,1.000
-6.585,-10.368,-11.008,-8.369,-9.745,-5.775,-3.989,-7.157,-0.066,1.001,-0.044,-0.122,3.357,-0.916,80.000,8561.000,1.000
-5.820,-10.314,-11.197,-8.513,-11.535,-7.456,-6.083,-8.533,-0.064,1.002,-0.043,-0.183,3.357,-1.007,80.000,8562.000,1.000
-4.984,-10.188,-11.136,-7.913,-12.634,-8.950,-7.874,-9.521,-0.069,1.002,-0.042,-0.183,3.235,-1.068,80.000,8563.000,1.000
-3.683,-9.953,-10.157,-6.815,-12.142,-9.529,-8.652,-10.146,-0.068,1.003,-0.042,-0.031,3.296,-1.038,80.000,8564.000,1.000
-1.945,-8.832,-8.210,-5.328,-10.259,-8.776,-7.947,-10.040,-0.067,1.001,-0.040,0.031,3.296,-0.977,80.000,8565.000,1.000
-0.500,-6.566,-6.215,-3.775,-8.389,-7.249,-6.340,-9.259,-0.067,1.002,-0.035,0.061,3.235,-1.129,80.000,8566.000,1.000
-0.020,-4.069,-5.092,-2.684,-7.659,-5.937,-5.017,-8.533,-0.065,1.000,-0.035,0.183,3.174,-1.160,80.000,8567.000,1.000
-0.357,-2.559,-4.810,-2.308,-7.811,-5.257,-4.618,-8.533,-0.066,1.000,-0.037,0.153,3.174,-1.160,80.000,8568.000,1.000
-0.760,-2.269,-4.675,-2.280,-7.828,-4.827,-4.724,-9.000,-0.065,1.002,-0.038,0.183,3.021,-1.068,80.000,8569.000,1.000
-0.756,-2.335,-4.331,-1.895,-7.262,-4.164,-4.459,-8.828,-0.067,1.003,-0.041,0.305,2.991,-1.038,80.000,8570.000,1.000
-0.605,-1.956,-4.035,-0.796,-6.488,-3.368,-3.454,-7.164,-0.069,1.003,-0.038,0.366,2.960,-0.977,80.000,8571.000,1.000
-0.859,-1.367,-4.007,0.630,-5.797,-2.903,-2.087,-4.314,-0.069,1.005,-0.038,0.366,2.899,-0.946,80.000,8572.000,1.000
-1.693,-1.381,-3.959,1.586,-4.806,-2.854,-0.775,-1.347,-0.072,1.005,-0.036,0.336,2.777,-0.885,80.000,8573.000,1.000
-2.785,-2.074,-3.448,1.668,-2.999,-2.631,0.658,1.106,-0.071,1.003,-0.039,0.610,2.747,-0.854,80.000,8574.000,1.000
-3.766,-2.432,-2.530,1.231,-0.624,-1.536,2.617,3.267,-0.071,1.001,-0.034,0.580,2.808,-0.824,80.000,8575.000,1.000
-4.545,-1.536,-1.779,0.920,1.384,0.492,4.957,5.407,-0.071,1.004,-0.035,0.610,2.716,-0.824,80.000,8576.000,1.000
-5.056,0.267,-1.561,1.006,2.458,2.870,6.962,7.120,-0.069,1.004,-0.038,0.641,2.686,-0.824,80.000,8577.000,1.000
-4.962,1.755,-1.589,1.262,2.955,5.003,8.104,7.673,-0.070,1.002,-0.037,0.732,2.472,-0.702,80.000,8578.000,1.000
-3.926,2.295,-1.334,1.409,3.507,6.729,8.586,6.999,-0.069,1.002,-0.039,0.824,2.472,-0.519,80.000,8579.000,1.000
-2.150,2.536,-0.639,1.580,4.214,8.208,9.098,6.059,-0.069,1.002,-0.037,0.916,2.472,-0.519,80.000,8580.000,1.000
-0.456,3.395,0.214,2.079,4.712,9.512,10.093,5.898,-0.068,1.003,-0.041,0.946,2.472,-0.427,80.000,8581.000,1.000
0.272,4.679,0.915,2.717,4.839,10.476,11.380,6.439,-0.069,1.003,-0.041,1.068,2.380,-0.458,80.000,8582.000,1.000
-0.283,5.294,1.449,2.774,4.995,11.037,12.520,6.625,-0.067,1.001,-0.040,1.251,2.319,-0.275,80.000,8583.000,1.000
-1.782,4.733,1.954,1.782,5.674,11.489,13.442,5.788,-0.065,1.001,-0.039,1.312,2.411,-0.305,80.000,8584.000,1.000
-3.637,3.728,2.271,0.049,6.647,12.054,14.338,4.357,-0.066,1.000,-0.042,1.373,2.350,-0.092,80.000,8585.000,1.000
-5.374,3.212,1.891,-1.724,6.964,12.329,15.037,3.025,-0.067,1.001,-0.040,1.495,2.411,-0.031,80.000,8586.000,1.000
-6.602,3.211,0.691,-3.057,6.079,11.692,15.044,1.784,-0.065,1.002,-0.041,1.617,2.380,-0.092,80.000,8587.000,1.000
-6.820,3.161,-0.483,-3.765,4.646,10.196,14.231,0.136,-0.066,1.002,-0.039,1.617,2.350,-0.031,80.000,8588.000,1.000
-5.680,2.923,-0.552,-3.785,3.646,8.508,12.915,-2.086,-0.066,1.002,-0.037,1.678,2.411,-0.061,80.000,8589.000,1.000
-3.568,3.011,0.508,-3.241,3.014,6.974,11.180,-4.529,-0.064,1.006,-0.041,1.678,2.472,-0.122,80.000,8590.000,1.000
-1.535,3.790,1.612,-2.571,1.775,5.216,8.558,-6.869,-0.064,1.004,-0.040,1.617,2.533,-0.061,80.000,8591.000,1.000
-0.355,4.768,1.861,-2.365,-0.517,2.786,4.665,-9.245,-0.064,1.005,-0.041,1.617,2.563,0.000,80.000,8592.000,1.000
0.115,4.976,1.461,-2.920,-3.028,-0.084,0.034,-11.838,-0.064,1.005,-0.042,1.648,2.686,-0.061,80.000,8593.000,1.000
0.493,4.077,1.226,-3.839,-4.515,-2.593,-3.909,-14.041,-0.064,1.006,-0.040,1.648,2.747,-0.092,80.000,8594.000,1.000
1.075,2.887,1.601,-4.098,-4.518,-4.070,-5.779,-14.362,-0.061,1.005,-0.043,1.709,2.869,-0.122,80.000,8595.000,1.000
1.608,2.453,2.329,-2.783,-3.468,-4.467,-5.180,-11.575,-0.060,1.003,-0.044,1.678,2.899,-0.061,80.000,8596.000,1.000
1.662,2.712,2.920,0.025,-1.906,-4.227,-2.855,-6.082,-0.060,1.002,-0.047,1.587,2.991,-0.092,80.000,8597.000,1.000
1.172,2.701,3.292,3.297,0.141,-3.588,0.137,0.271,-0.060,1.003,-0.044,1.587,3.082,-0.275,80.000,8598.000,1.000
0.642,2.222,3.927,6.110,2.946,-2.066,3.366,5.866,-0.060,1.004,-0.043,1.587,3.082,-0.244,80.000,8599.000,1.000
0.640,2.478,5.253,8.318,6.320,1.014,6.905,10.306,-0.061,1.004,-0.043,1.709,3.387,-0.305,80.000,8600.000,1.000
1.125,4.552,6.994,10.037,9.336,5.434,10.424,13.669,-0.061,1.004,-0.041,1.617,3.418,-0.305,80.000,8601.000,1.000
1.538,7.789,8.390,10.958,11.092,9.912,12.948,15.468,-0.063,1.003,-0.044,1.648,3.510,-0.519,80.000,8602.000,1.000
1.443,10.226,8.883,10.514,11.508,13.129,13.727,14.972,-0.062,1.003,-0.042,1.709,3.632,-0.610,80.000,8603.000,1.000
0.786,10.500,8.301,8.638,11.099,14.687,13.066,12.437,-0.061,1.002,-0.042,1.648,3.632,-0.488,80.000,8604.000,1.000
-0.376,9.011,6.606,6.133,10.226,15.047,12.126,9.523,-0.061,1.002,-0.042,1.617,3.723,-0.519,80.000,8605.000,1.000
-2.077,7.136,3.873,4.114,8.970,14.856,11.993,8.093,-0.061,1.001,-0.046,1.556,3.815,-0.580,80.000,8606.000,1.000
-4.190,5.702,0.702,3.140,7.741,14.597,13.093,8.717,-0.061,1.002,-0.050,1.617,3.967,-0.641,80.000,8607.000,1.000
-6.158,4.688,-1.649,3.082,7.529,14.782,15.381,10.628,-0.065,1.002,-0.050,1.495,3.967,-0.641,80.000,8608.000,1.000
-7.312,4.096,-2.049,3.610,9.032,15.927,18.636,12.870,-0.063,1.002,-0.044,1.587,4.028,-0.702,80.000,8609.000,1.000
-7.570,4.285,-0.673,4.388,11.487,17.899,22.225,14.881,-0.062,1.004,-0.046,1.587,4.181,-0.580,80.000,8610.000,1.000
-7.577,5.186,0.911,4.819,12.936,19.567,24.845,16.022,-0.064,1.004,-0.048,1.556,4.150,-0.641,80.000,8611.000,1.000
-7.988,5.798,1.174,4.133,12.041,19.636,25.207,15.321,-0.065,1.005,-0.048,1.495,4.181,-0.549,80.000,8612.000,1.000
-8.734,5.052,-0.002,2.036,9.350,17.843,23.137,12.213,-0.064,1.005,-0.049,1.404,4.211,-0.488,80.000,8613.000,1.000
-9.195,3.015,-1.676,-0.893,6.364,14.970,19.584,7.262,-0.064,1.006,-0.048,1.434,4.181,-0.702,80.000,8614.000,1.000
-8.972,0.922,-3.171,-3.564,3.795,11.833,15.539,1.852,-0.063,1.003,-0.048,1.373,4.211,-0.732,80.000,8615.000,1.000
-8.204,-0.092,-4.515,-5.132,1.280,8.580,11.248,-2.879,-0.065,1.005,-0.049,1.343,4.242,-0.610,80.000,8616.000,1.000
-7.263,-0.284,-5.889,-5.619,-1.598,4.775,6.294,-6.944,-0.065,1.007,-0.047,1.434,4.150,-0.610,80.000,8617.000,1.000
-6.338,-0.984,-7.114,-5.763,-4.611,0.020,0.269,-11.185,-0.065,1.008,-0.044,1.434,4.211,-0.610,80.000,8618.000,1.000
-5.223,-2.759,-7.635,-6.009,-7.100,-5.367,-6.426,-15.811,-0.065,1.010,-0.046,1.373,4.120,-0.610,80.000,8619.000,1.000
-3.527,-4.364,-6.953,-5.868,-8.563,-10.349,-12.461,-19.577,-0.066,1.010,-0.043,1.343,4.059,-0.580,80.000,8620.000,1.000
-1.028,-3.967,-4.970,-4.453,-8.771,-13.815,-16.316,-20.711,-0.067,1.009,-0.047,1.221,4.181,-0.549,80.000,8621.000,1.000
2.309,-1.030,-1.795,-1.399,-7.316,-15.029,-17.039,-18.389,-0.068,1.007,-0.047,1.068,4.089,-0.549,80.000,8622.000,1.000
6.423,3.380,2.485,2.813,-3.630,-13.639,-14.526,-13.187,-0.068,1.006,-0.045,1.068,3.967,-0.519,80.000,8623.000,1.000
10.888,7.850,7.452,7.215,2.090,-9.732,-9.496,-6.408,-0.068,1.005,-0.046,1.038,3.937,-0.366,80.000,8624.000,1.000
14.574,11.628,11.915,10.834,8.208,-4.106,-3.318,0.683,-0.068,1.004,-0.047,1.007,3.937,-0.458,80.000,8625.000,1.000
15.945,14.226,14.234,12.841,12.395,1.696,2.322,6.877,-0.068,1.004,-0.045,1.007,3.906,-0.549,80.000,8626.000,1.000
14.160,14.773,13.493,12.630,13.339,6.077,6.069,10.836,-0.070,1.001,-0.046,0.946,3.723,-0.519,80.000,8627.000,1.000
9.948,12.613,10.365,10.167,11.702,8.467,7.664,11.713,-0.067,1.001,-0.044,1.007,3.662,-0.610,80.000,8628.000,1.000
5.126,8.467,6.534,6.294,9.220,9.570,8.025,10.084,-0.066,0.998,-0.044,0.977,3.571,-0.549,80.000,8629.000,1.000
1.210,4.338,3.243,2.395,7.002,10.378,8.342,7.778,-0.067,0.999,-0.041,0.946,3.479,-0.336,80.000,8630.000,1.000
-1.435,1.839,0.594,-0.505,4.954,11.053,9.014,6.374,-0.067,1.000,-0.042,1.007,3.357,-0.305,80.000,8631.000,1.000
-3.293,0.738,-1.871,-2.387,2.647,10.897,9.515,5.951,-0.065,1.001,-0.040,0.977,3.265,-0.336,80.000,8632.000,1.000
-4.882,-0.508,-4.283,-3.947,0.213,9.369,9.227,5.499,-0.065,1.002,-0.037,0.946,3.204,-0.519,80.000,8633.000,1.000
-6.355,-2.802,-6.328,-5.673,-1.867,6.861,8.171,4.376,-0.066,1.001,-0.041,0.854,3.174,-0.519,80.000,8634.000,1.000
-7.774,-5.464,-7.903,-7.400,-3.604,4.311,6.758,2.949,-0.067,1.004,-0.041,0.946,3.235,-0.488,80.000,8635.000,1.000
-9.345,-7.313,-9.400,-8.714,-5.551,2.309,5.121,1.817,-0.066,1.004,-0.041,0.854,3.265,-0.641,80.000,8636.000,1.000
-11.080,-8.102,-11.055,-9.510,-7.862,0.883,3.065,0.887,-0.067,1.002,-0.041,0.885,3.113,-0.610,80.000,8637.000,1.000
-12.545,-8.540,-12.436,-10.060,-9.873,-0.171,0.512,-0.538,-0.064,1.001,-0.040,0.854,3.082,-0.671,80.000,8638.000,1.000
-13.248,-9.178,-12.954,-10.618,-10.952,-1.116,-2.280,-2.850,-0.064,1.003,-0.042,0.824,2.991,-0.641,80.000,8639.000,1.000
-13.161,-9.682,-12.645,-11.038,-11.394,-2.319,-4.953,-5.561,-0.067,1.001,-0.042,0.763,2.930,-0.732,80.000,8640.000,1.000
-12.664,-9.422,-12.086,-10.938,-12.048,-4.205,-7.402,-7.848,-0.066,1.000,-0.039,0.793,3.021,-0.702,80.000,8641.000,1.000
-12.060,-8.511,-11.594,-10.185,-13.150,-6.991,-9.799,-9.553,-0.066,1.001,-0.042,0.763,2.991,-0.854,80.000,8642.000,1.000
-11.209,-7.745,-10.773,-8.966,-13.910,-10.388,-12.228,-11.217,-0.066,1.001,-0.038,0.793,3.021,-0.885,80.000,8643.000,1.000
-9.632,-7.371,-8.932,-7.323,-13.353,-13.638,-14.363,-13.007,-0.065,1.001,-0.040,0.824,2.930,-1.068,80.000,8644.000,1.000
-7.044,-6.486,-5.853,-4.926,-11.343,-15.967,-15.680,-14.103,-0.066,1.002,-0.043,0.732,2.838,-1.068,80.000,8645.000,1.000
-3.779,-4.114,-2.040,-1.561,-8.584,-17.118,-16.036,-13.604,-0.066,1.003,-0.041,0.732,2.838,-1.160,80.000,8646.000,1.000
-0.425,-0.459,1.952,2.434,-5.597,-17.289,-15.752,-11.602,-0.066,1.004,-0.038,0.641,2.777,-1.190,80.000,8647.000,1.000
2.982,3.427,6.225,6.509,-2.026,-16.501,-14.954,-8.857,-0.068,1.004,-0.040,0.549,2.777,-1.282,80.000,8648.000,1.000
7.073,7.001,11.229,10.530,2.657,-14.386,-13.198,-5.646,-0.067,1.004,-0.043,0.549,2.747,-1.312,80.000,8649.000,1.000
12.390,10.855,16.915,14.876,8.131,-10.647,-9.890,-1.369,-0.066,1.007,-0.041,0.488,2.716,-1.404,80.000,8650.000,1.000
18.592,15.665,22.445,19.755,13.282,-5.576,-5.030,4.461,-0.070,1.006,-0.039,0.488,2.747,-1.404,80.000,8651.000,1.000
24.287,20.515,26.513,24.284,16.964,-0.269,0.355,10.843,-0.067,1.007,-0.038,0.549,2.655,-1.404,80.000,8652.000,1.000
27.632,22.967,27.919,26.547,18.483,3.781,4.606,15.427,-0.068,1.007,-0.038,0.549,2.625,-1.434,80.000,8653.000,1.000
27.247,21.176,26.013,24.938,17.482,5.485,6.435,16.318,-0.069,1.006,-0.038,0.519,2.533,-1.373,80.000,8654.000,1.000
22.705,15.414,20.686,19.306,13.563,4.486,5.458,13.398,-0.069,1.005,-0.035,0.580,2.594,-1.373,80.000,8655.000,1.000
14.647,7.346,12.314,10.838,6.519,0.929,1.933,7.794,-0.069,1.003,-0.039,0.549,2.563,-1.251,80.000,8656.000,1.000
4.887,-1.449,2.138,1.287,-2.714,-4.512,-3.431,0.693,-0.069,1.003,-0.041,0.397,2.502,-1.282,80.000,8657.000,1.000
-3.966,-9.741,-7.600,-7.559,-11.739,-10.312,-9.297,-6.840,-0.069,1.005,-0.038,0.549,2.502,-1.129,80.000,8658.000,1.000
-9.722,-16.020,-14.520,-14.074,-17.880,-14.386,-13.785,-13.237,-0.068,1.003,-0.041,0.763,2.472,-1.099,80.000,8659.000,1.000
-11.793,-18.673,-17.510,-17.114,-19.943,-15.295,-15.369,-16.570,-0.068,1.002,-0.040,0.854,2.563,-0.977,80.000,8660.000,1.000
-11.244,-17.366,-17.314,-16.604,-18.787,-13.353,-13.974,-15.907,-0.068,1.001,-0.041,0.885,2.563,-1.068,80.000,8661.000,1.000
-9.733,-13.938,-15.692,-13.806,-16.187,-10.321,-11.014,-12.319,-0.068,1.001,-0.039,0.977,2.594,-0.977,80.000,8662.000,1.000
-8.379,-11.168,-13.995,-10.629,-13.330,-7.842,-8.102,-8.049,-0.068,0.996,-0.040,0.977,2.563,-0.977,80.000,8663.000,1.000
-7.489,-10.464,-12.645,-8.391,-10.552,-6.303,-5.818,-4.640,-0.066,0.994,-0.039,1.068,2.533,-0.946,80.000,8664.000,1.000
-7.101,-11.102,-11.774,-7.255,-8.172,-5.260,-3.874,-2.144,-0.069,0.996,-0.038,1.221,2.533,-0.854,80.000,8665.000,1.000
-7.418,-11.685,-11.741,-6.758,-6.835,-4.506,-2.121,-0.082,-0.070,0.997,-0.039,1.343,2.472,-0.793,80.000,8666.000,1.000
-8.493,-11.758,-12.631,-6.579,-6.739,-4.265,-0.927,1.393,-0.071,0.999,-0.041,1.587,2.533,-0.824,80.000,8667.000,1.000
-9.719,-11.693,-13.625,-6.647,-7.042,-4.525,-0.576,1.660,-0.068,1.001,-0.041,1.648,2.533,-0.702,80.000,8668.000,1.000
-10.071,-11.475,-13.483,-6.769,-6.616,-4.754,-0.829,0.655,-0.069,1.001,-0.044,1.709,2.533,-0.702,80.000,8669.000,1.000
-9.008,-10.305,-11.710,-6.529,-5.336,-4.554,-1.409,-0.897,-0.067,1.003,-0.044,1.709,2.563,-0.671,80.000,8670.000,1.000
-6.927,-7.750,-8.974,-5.729,-4.277,-4.425,-2.770,-2.521,-0.067,1.004,-0.046,1.678,2.563,-0.641,80.000,8671.000,1.000
-4.540,-4.732,-6.215,-4.642,-4.443,-5.433,-5.825,-4.708,-0.067,1.004,-0.040,1.678,2.594,-0.641,80.000,8672.000,1.000
-1.904,-2.651,-3.491,-3.470,-5.449,-7.868,-10.625,-8.035,-0.067,1.005,-0.044,1.740,2.686,-0.610,80.000,8673.000,1.000
1.557,-1.621,-0.014,-1.732,-5.792,-10.593,-15.676,-11.788,-0.067,1.001,-0.046,1.801,2.808,-0.549,80.000,8674.000,1.000
6.030,-0.272,4.652,1.399,-4.440,-12.085,-18.965,-14.040,-0.066,1.000,-0.046,1.923,2.899,-0.427,80.000,8675.000,1.000
10.702,2.527,9.820,6.071,-1.707,-11.867,-19.533,-13.252,-0.067,1.000,-0.049,1.953,2.899,-0.427,80.000,8676.000,1.000
14.357,6.229,14.285,11.274,1.544,-10.581,-17.798,-9.563,-0.067,1.001,-0.051,1.923,2.930,-0.458,80.000,8677.000,1.000
16.352,9.170,17.335,15.424,4.886,-9.000,-14.645,-4.448,-0.065,0.999,-0.048,1.953,2.899,-0.458,80.000,8678.000,1.000
16.692,10.218,18.782,17.321,8.027,-7.458,-10.727,0.584,-0.065,1.002,-0.047,2.014,3.082,-0.427,80.000,8679.000,1.000
15.402,9.555,18.338,16.628,10.076,-6.084,-6.566,4.755,-0.067,1.003,-0.046,1.984,3.082,-0.458,80.000,8680.000,1.000
12.453,8.042,15.713,13.776,10.004,-4.972,-2.772,7.776,-0.065,1.002,-0.046,2.014,3.174,-0.488,80.000,8681.000,1.000
8.328,6.201,11.415,9.579,7.935,-3.975,0.163,9.300,-0.067,1.004,-0.046,1.984,3.143,-0.610,80.000,8682.000,1.000
4.174,4.029,6.891,4.933,5.350,-2.650,2.180,8.962,-0.067,1.005,-0.045,2.045,3.143,-0.641,80.000,8683.000,1.000
1.013,1.598,3.449,0.658,3.699,-0.665,3.603,6.976,-0.069,1.005,-0.046,1.953,3.174,-0.732,80.000,8684.000,1.000
-1.113,-0.600,1.162,-2.602,3.025,1.685,4.694,4.351,-0.071,1.003,-0.044,1.923,3.113,-0.916,80.000,8685.000,1.000
-2.977,-2.214,-0.950,-4.626,2.178,3.385,5.221,2.158,-0.071,1.004,-0.043,1.801,3.052,-1.099,80.000,8686.000,1.000
-5.198,-3.707,-3.721,-5.801,0.232,3.302,4.581,0.615,-0.070,1.004,-0.047,1.862,3.021,-1.190,80.000,8687.000,1.000
-7.526,-5.904,-6.878,-6.737,-2.483,1.182,2.547,-0.717,-0.068,1.005,-0.049,1.770,3.052,-1.343,80.000,8688.000,1.000
-9.073,-8.658,-9.254,-7.507,-4.762,-1.877,-0.113,-1.797,-0.070,1.006,-0.049,1.587,2.930,-1.434,80.000,8689.000,1.000
-9.261,-10.535,-9.987,-7.596,-5.800,-4.192,-2.041,-1.726,-0.071,1.005,-0.050,1.526,2.869,-1.434,80.000,8690.000,1.000
-8.543,-10.314,-9.425,-6.752,-5.847,-4.830,-2.407,0.176,-0.069,1.007,-0.049,1.465,2.960,-1.465,80.000,8691.000,1.000
-8.025,-8.494,-8.644,-5.551,-5.524,-4.026,-1.424,3.282,-0.069,1.008,-0.046,1.312,2.869,-1.526,80.000,8692.000,1.000
-8.416,-6.783,-8.284,-4.919,-4.918,-2.416,0.211,6.098,-0.068,1.008,-0.046,1.129,2.930,-1.526,80.000,8693.000,1.000
-9.556,-6.256,-8.236,-5.232,-3.790,-0.419,2.011,7.608,-0.070,1.010,-0.043,1.038,2.899,-1.495,80.000,8694.000,1.000
-10.827,-6.411,-8.254,-6.021,-2.404,1.596,3.685,7.884,-0.068,1.010,-0.045,0.854,2.960,-1.404,80.000,8695.000,1.000
-11.574,-5.990,-8.182,-6.406,-1.375,3.181,4.920,7.511,-0.067,1.010,-0.048,0.732,2.930,-1.343,80.000,8696.000,1.000
-11.111,-4.359,-7.487,-5.733,-0.621,4.173,5.533,6.771,-0.067,1.008,-0.045,0.519,2.991,-1.404,80.000,8697.000,1.000
-8.741,-1.846,-5.163,-3.854,0.869,4.886,5.717,5.559,-0.068,1.006,-0.043,0.397,3.143,-1.282,80.000,8698.000,1.000
-4.126,1.126,-0.534,-0.905,3.924,5.767,5.946,4.031,-0.068,1.006,-0.046,0.275,3.174,-1.129,80.000,8699.000,1.000
2.222,4.671,5.844,2.950,8.063,6.838,6.516,2.901,-0.070,1.006,-0.045,0.183,3.113,-1.221,80.000,8700.000,1.000
8.887,8.755,12.223,7.267,11.695,7.384,7.046,2.647,-0.072,1.005,-0.047,0.061,3.113,-1.129,80.000,8701.000,1.000
14.347,12.384,16.888,11.104,13.576,6.437,6.638,2.679,-0.072,1.005,-0.045,-0.122,3.143,-1.007,80.000,8702.000,1.000
17.991,14.283,19.442,13.547,13.930,3.848,4.817,1.883,-0.073,1.005,-0.045,-0.092,3.143,-0.916,80.000,8703.000,1.000
20.270,14.391,20.776,14.542,13.991,0.703,2.237,0.085,-0.074,1.005,-0.043,-0.244,2.991,-0.854,80.000,8704.000,1.000
21.945,14.177,21.897,15.092,14.648,-1.456,0.283,-1.385,-0.075,1.003,-0.041,-0.305,3.113,-0.916,80.000,8705.000,1.000
23.356,15.122,23.050,16.379,15.834,-1.781,-0.032,-0.938,-0.075,1.002,-0.041,-0.305,2.991,-0.854,80.000,8706.000,1.000
24.352,17.060,23.886,18.586,17.092,-0.499,1.268,1.580,-0.078,1.000,-0.041,-0.336,2.838,-0.885,80.000,8707.000,1.000
24.689,18.412,24.091,20.683,18.233,1.663,3.523,4.777,-0.078,1.001,-0.042,-0.305,2.838,-0.824,80.000,8708.000,1.000
24.198,17.932,23.513,21.354,19.102,4.077,6.112,7.152,-0.079,1.000,-0.037,-0.397,2.625,-0.763,80.000,8709.000,1.000
22.506,15.691,21.722,19.878,18.929,6.128,8.466,8.153,-0.079,1.001,-0.040,-0.244,2.533,-0.824,80.000,8710.000,1.000
18.938,12.288,17.943,16.181,16.517,6.918,9.731,7.831,-0.077,0.998,-0.044,-0.244,2.380,-0.977,80.000,8711.000,1.000
13.107,7.679,11.829,10.535,11.388,5.573,8.992,6.089,-0.078,0.994,-0.046,-0.183,2.441,-0.916,80.000,8712.000,1.000
5.587,1.400,4.136,3.516,4.504,1.999,6.103,2.874,-0.077,0.995,-0.040,-0.153,2.411,-0.885,80.000,8713.000,1.000
-2.276,-6.162,-3.675,-3.829,-2.439,-2.864,2.112,-0.990,-0.076,0.997,-0.039,0.031,2.319,-0.916,80.000,8714.000,1.000
-9.273,-13.296,-10.509,-10.189,-8.335,-7.630,-1.423,-3.804,-0.077,0.996,-0.038,0.092,2.258,-0.824,80.000,8715.000,1.000
-14.952,-18.222,-16.157,-14.700,-13.069,-11.377,-3.627,-4.280,-0.076,0.996,-0.042,0.183,2.167,-0.916,80.000,8716.000,1.000
-19.381,-20.682,-20.810,-17.479,-16.746,-13.961,-4.735,-2.685,-0.074,0.997,-0.040,0.305,2.014,-0.824,80.000,8717.000,1.000
-22.541,-21.733,-24.290,-19.260,-18.938,-15.406,-5.285,-0.353,-0.074,0.998,-0.042,0.275,2.228,-0.793,80.000,8718.000,1.000
-24.166,-22.060,-26.018,-20.508,-19.018,-15.315,-5.183,1.828,-0.075,0.999,-0.041,0.305,2.258,-0.824,80.000,8719.000,1.000
-24.206,-21.207,-25.766,-21.055,-17.156,-13.237,-3.909,4.025,-0.075,1.000,-0.041,0.610,2.167,-0.671,80.000,8720.000,1.000
-23.123,-18.668,-24.093,-20.609,-14.483,-9.483,-1.470,6.547,-0.076,1.001,-0.040,0.671,2.228,-0.641,80.000,8721.000,1.000
-21.545,-15.185,-21.822,-19.404,-12.073,-5.186,1.259,8.790,-0.074,1.000,-0.039,0.641,2.197,-0.641,80.000,8722.000,1.000
-19.746,-12.362,-19.330,-18.197,-10.152,-1.524,3.146,9.473,-0.073,1.003,-0.042,0.702,2.197,-0.519,80.000,8723.000,1.000
-17.578,-10.976,-16.549,-17.514,-8.459,0.960,3.625,7.937,-0.073,1.003,-0.042,0.732,2.167,-0.488,80.000,8724.000,1.000
-14.816,-10.080,-13.437,-16.982,-6.966,2.337,2.908,4.978,-0.074,1.005,-0.041,0.671,2.228,-0.488,80.000,8725.000,1.000
-11.509,-8.163,-10.195,-15.656,-5.894,2.780,1.501,2.109,-0.073,1.006,-0.040,0.641,2.258,-0.397,80.000,8726.000,1.000
-7.983,-4.954,-7.002,-13.015,-5.160,2.310,-0.337,0.088,-0.074,1.007,-0.040,0.671,2.319,-0.366,80.000,8727.000,1.000
-4.543,-1.583,-3.728,-9.402,-4.148,1.081,-2.496,-1.411,-0.073,1.006,-0.042,0.610,2.289,-0.397,80.000,8728.000,1.000
-1.336,0.891,-0.199,-5.556,-2.359,-0.457,-4.704,-2.871,-0.073,1.004,-0.042,0.671,2.289,-0.397,80.000,8729.000,1.000
1.381,2.415,3.149,-2.111,-0.316,-2.079,-6.738,-4.307,-0.071,1.004,-0.043,0.641,2.228,-0.397,80.000,8730.000,1.000
3.179,3.259,5.231,0.381,0.616,-4.203,-8.804,-5.715,-0.074,1.004,-0.042,0.610,2.350,-0.366,80.000,8731.000,1.000
3.936,3.087,5.275,1.350,-0.412,-7.369,-11.259,-7.577,-0.074,1.007,-0.039,0.580,2.533,-0.275,80.000,8732.000,1.000
4.128,1.324,3.663,0.496,-2.813,-11.327,-13.908,-10.401,-0.072,1.006,-0.037,0.580,2.472,-0.244,80.000,8733.000,1.000
4.370,-1.652,1.569,-1.733,-5.183,-14.837,-15.782,-13.705,-0.070,1.006,-0.038,0.610,2.533,-0.214,80.000,8734.000,1.000
4.688,-4.275,-0.141,-4.205,-6.634,-16.505,-15.879,-15.930,-0.067,1.005,-0.038,0.610,2.625,-0.183,80.000,8735.000,1.000
4.383,-5.183,-1.458,-5.941,-7.305,-15.873,-14.146,-15.795,-0.069,1.003,-0.042,0.671,2.563,-0.061,80.000,8736.000,1.000
2.780,-4.583,-2.700,-6.835,-7.579,-13.568,-11.510,-13.571,-0.069,1.003,-0.043,0.549,2.655,-0.092,80.000,8737.000,1.000
0.120,-3.754,-3.718,-7.386,-7.254,-10.447,-8.910,-10.685,-0.071,1.003,-0.045,0.488,2.716,-0.122,80.000,8738.000,1.000
-2.482,-3.411,-3.984,-7.884,-5.878,-6.921,-6.557,-8.223,-0.070,1.004,-0.043,0.549,2.747,-0.153,80.000,8739.000,1.000
-4.070,-3.095,-3.469,-8.141,-3.824,-3.264,-4.290,-6.260,-0.070,1.005,-0.042,0.610,2.838,-0.122,80.000,8740.000,1.000
-4.733,-2.325,-3.101,-8.082,-2.478,-0.214,-2.432,-4.687,-0.072,1.005,-0.043,0.580,2.899,-0.153,80.000,8741.000,1.000
-5.329,-1.777,-4.008,-8.237,-3.026,1.268,-1.791,-4.058,-0.070,1.004,-0.040,0.702,3.021,-0.183,80.000,8742.000,1.000
-6.403,-2.663,-6.298,-9.211,-5.171,1.004,-2.618,-4.979,-0.069,1.001,-0.040,0.702,2.960,-0.244,80.000,8743.000,1.000
-7.657,-5.055,-8.905,-10.767,-7.408,0.011,-3.943,-6.852,-0.069,1.002,-0.039,0.641,2.991,-0.183,80.000,8744.000,1.000
-8.622,-7.550,-10.807,-11.897,-8.642,-0.476,-4.439,-7.978,-0.067,1.001,-0.039,0.732,3.143,-0.122,80.000,8745.000,1.000
-9.452,-8.846,-12.048,-11.951,-9.126,-0.239,-3.776,-7.179,-0.067,1.001,-0.042,0.732,3.235,-0.183,80.000,8746.000,1.000
-10.601,-9.095,-13.194,-11.366,-9.575,0.045,-2.717,-4.943,-0.068,1.003,-0.043,0.824,3.265,-0.061,80.000,8747.000,1.000
-12.012,-9.325,-14.222,-11.141,-9.954,-0.035,-2.012,-2.780,-0.067,1.004,-0.041,0.854,3.357,0.061,80.000,8748.000,1.000
-13.155,-9.934,-14.569,-11.840,-9.714,-0.091,-1.633,-1.726,-0.068,1.003,-0.040,0.854,3.418,0.092,80.000,8749.000,1.000
-13.793,-10.225,-14.138,-13.170,-8.900,0.396,-1.185,-1.656,-0.069,1.002,-0.039,0.916,3.510,0.061,80.000,8750.000,1.000
-14.281,-9.486,-13.659,-14.428,-8.365,1.281,-0.755,-1.975,-0.068,1.000,-0.042,0.885,3.632,0.092,80.000,8751.000,1.000
-14.995,-8.120,-13.795,-15.158,-8.720,1.923,-0.946,-2.562,-0.069,1.001,-0.039,0.916,3.571,0.092,80.000,8752.000,1.000
-15.653,-7.238,-14.165,-15.222,-9.434,2.063,-2.004,-3.591,-0.071,1.000,-0.040,0.885,3.540,0.122,80.000,8753.000,1.000
-15.438,-7.238,-13.656,-14.426,-9.369,2.115,-3.321,-4.657,-0.070,0.998,-0.043,0.885,3.601,0.214,80.000,8754.000,1.000
-13.876,-7.325,-11.745,-12.488,-8.130,2.434,-4.090,-4.735,-0.070,1.001,-0.040,0.916,3.601,0.183,80.000,8755.000,1.000
-11.457,-6.672,-9.154,-9.537,-6.480,2.589,-4.273,-3.317,-0.069,1.002,-0.042,1.038,3.693,0.183,80.000,8756.000,1.000
-9.206,-5.643,-7.049,-6.372,-5.341,1.665,-4.600,-1.276,-0.071,1.001,-0.042,1.068,3.540,0.031,80.000,8757.000,1.000
-7.760,-5.434,-5.896,-3.954,-4.761,-0.746,-5.598,-0.141,-0.073,1.002,-0.040,1.007,3.571,0.092,80.000,8758.000,1.000
-7.023,-6.568,-5.320,-2.634,-4.189,-4.066,-6.914,-0.548,-0.072,1.002,-0.042,1.007,3.510,0.092,80.000,8759.000,1.000
-6.622,-8.149,-4.911,-1.989,-3.488,-7.295,-7.749,-1.717,-0.073,1.002,-0.041,1.099,3.510,0.000,80.000,8760.000,1.000
-6.350,-8.821,-4.684,-1.363,-3.136,-9.816,-7.761,-2.507,-0.071,1.003,-0.040,1.038,3.418,-0.031,80.000,8761.000,1.000
-6.028,-8.187,-4.610,-0.442,-3.331,-11.475,-7.298,-2.648,-0.071,1.004,-0.042,1.221,3.418,-0.153,80.000,8762.000,1.000
-5.179,-6.843,-4.075,0.686,-3.370,-12.054,-6.811,-2.756,-0.071,1.004,-0.042,1.251,3.387,-0.153,80.000,8763.000,1.000
-3.235,-5.175,-2.239,1.963,-2.281,-11.040,-6.238,-3.254,-0.069,1.004,-0.042,1.221,3.418,-0.153,80.000,8764.000,1.000
-0.124,-2.667,1.106,3.674,0.139,-8.067,-5.091,-3.682,-0.068,1.006,-0.041,1.129,3.387,-0.183,80.000,8765.000,1.000
3.597,1.263,5.288,6.128,3.183,-3.483,-3.136,-3.343,-0.068,1.004,-0.043,1.160,3.265,-0.214,80.000,8766.000,1.000
7.268,6.050,9.405,9.090,6.107,1.753,-0.770,-2.344,-0.068,1.006,-0.042,1.129,3.265,-0.183,80.000,8767.000,1.000
10.542,10.122,12.945,11.740,8.754,6.742,1.392,-1.543,-0.067,1.007,-0.042,1.099,3.265,-0.153,80.000,8768.000,1.000
13.082,12.248,15.535,13.199,11.042,10.975,3.010,-1.583,-0.069,1.004,-0.043,1.038,3.326,-0.153,80.000,8769.000,1.000
14.138,12.438,16.421,13.009,12.223,14.070,3.983,-2.304,-0.068,1.006,-0.042,0.885,3.296,-0.092,80.000,8770.000,1.000
12.873,11.372,14.724,11.179,11.286,15.511,4.175,-3.168,-0.067,1.007,-0.043,0.946,3.296,-0.031,80.000,8771.000,1.000
9.226,9.294,10.425,7.964,8.195,14.991,3.484,-3.971,-0.065,1.008,-0.041,0.854,3.204,0.000,80.000,8772.000,1.000
4.402,6.099,4.955,3.901,4.406,13.060,2.310,-4.752,-0.066,1.005,-0.041,0.916,3.204,0.031,80.000,8773.000,1.000
0.244,2.367,0.419,-0.044,1.794,11.035,1.625,-5.154,-0.068,1.007,-0.042,0.641,3.174,0.214,80.000,8774.000,1.000
-2.122,-0.515,-1.998,-2.803,0.989,9.837,2.135,-4.437,-0.068,1.007,-0.040,0.641,3.296,0.183,80.000,8775.000,1.000
-3.003,-1.639,-2.721,-3.919,1.024,9.138,3.480,-2.354,-0.068,1.006,-0.041,0.610,3.265,0.153,80.000,8776.000,1.000
-3.470,-1.637,-2.891,-3.891,0.631,7.926,4.479,0.163,-0.068,1.003,-0.040,0.580,3.265,0.214,80.000,8777.000,1.000
-4.141,-1.981,-3.122,-3.715,-0.481,5.765,4.140,1.538,-0.067,1.001,-0.043,0.610,3.204,0.183,80.000,8778.000,1.000
-4.791,-3.283,-3.285,-4.026,-1.768,3.275,2.416,0.930,-0.067,1.000,-0.041,0.610,3.174,0.275,80.000,8779.000,1.000
-4.999,-4.646,-3.217,-4.693,-2.870,1.404,0.064,-1.037,-0.069,1.001,-0.039,0.641,3.143,0.244,80.000,8780.000,1.000
-4.764,-4.870,-3.149,-5.209,-4.001,0.445,-2.132,-3.051,-0.070,1.002,-0.041,0.641,3.113,0.305,80.000,8781.000,1.000
-4.346,-3.946,-3.323,-5.328,-5.304,-0.085,-3.886,-4.408,-0.069,1.001,-0.039,0.671,3.113,0.153,80.000,8782.000,1.000
-3.781,-2.947,-3.466,-5.140,-6.251,-0.704,-5.161,-5.225,-0.068,0.999,-0.043,0.702,3.082,-0.092,80.000,8783.000,1.000
-2.827,-2.558,-2.950,-4.639,-6.064,-1.368,-5.690,-5.542,-0.069,1.001,-0.042,0.732,3.021,-0.183,80.000,8784.000,1.000
-1.413,-2.266,-1.501,-3.483,-4.665,-1.730,-5.105,-4.803,-0.070,1.001,-0.040,0.702,2.960,-0.244,80.000,8785.000,1.000
0.069,-1.307,0.393,-1.424,-2.863,-1.756,-3.555,-2.574,-0.068,1.000,-0.038,0.671,2.899,-0.366,80.000,8786.000,1.000
1.111,0.011,1.933,1.121,-1.506,-1.844,-1.881,0.485,-0.068,1.001,-0.039,0.671,2.808,-0.427,80.000,8787.000,1.000
1.688,0.559,2.818,3.218,-0.709,-2.305,-0.984,2.874,-0.068,1.002,-0.042,0.763,2.716,-0.458,80.000,8788.000,1.000
2.243,-0.132,3.367,4.179,-0.125,-2.993,-1.147,3.511,-0.068,1.001,-0.039,0.702,2.686,-0.610,80.000,8789.000,1.000
3.018,-1.189,3.860,4.018,0.244,-3.559,-2.033,2.502,-0.067,1.003,-0.039,0.732,2.716,-0.671,80.000,8790.000,1.000
3.756,-1.364,4.167,3.236,0.036,-3.806,-3.123,0.667,-0.067,1.002,-0.040,0.793,2.716,-0.763,80.000,8791.000,1.000
4.166,-0.387,4.175,2.303,-0.675,-3.638,-3.972,-1.418,-0.066,1.002,-0.039,0.732,2.716,-0.671,80.000,8792.000,1.000
4.460,0.959,4.220,1.420,-1.073,-2.798,-4.199,-3.703,-0.069,1.004,-0.038,0.854,2.777,-0.671,80.000,8793.000,1.000
5.223,2.055,4.827,0.775,-0.350,-0.903,-3.451,-6.020,-0.068,1.005,-0.040,0.732,2.899,-0.702,80.000,8794.000,1.000
6.688,3.162,6.025,0.743,1.332,2.016,-1.692,-7.671,-0.067,1.003,-0.040,0.824,2.747,-0.793,80.000,8795.000,1.000
8.284,4.620,7.165,1.542,2.872,5.083,0.417,-8.102,-0.067,1.006,-0.040,0.854,2.686,-0.824,80.000,8796.000,1.000
9.227,5.934,7.661,2.909,3.440,7.124,1.828,-7.647,-0.069,1.003,-0.040,0.885,2.625,-0.732,80.000,8797.000,1.000
9.445,6.250,7.751,4.361,3.416,7.739,2.028,-7.108,-0.071,1.003,-0.043,0.854,2.625,-0.793,80.000,8798.000,1.000
9.514,5.547,8.145,5.674,3.780,7.571,1.475,-6.707,-0.070,1.002,-0.043,0.824,2.686,-0.732,80.000,8799.000,1.000
9.733,4.884,8.999,6.940,4.781,7.528,1.064,-5.816,-0.071,1.003,-0.041,0.885,2.716,-0.793,80.000,8800.000,1.000
9.639,5.185,9.576,8.107,5.618,7.855,1.199,-3.918,-0.072,1.003,-0.041,0.885,2.625,-0.793,80.000,8801.000,1.000
8.610,6.054,9.059,8.649,5.477,8.051,1.510,-1.581,-0.071,1.001,-0.042,0.916,2.563,-0.763,80.000,8802.000,1.000
6.816,6.269,7.519,7.997,4.546,7.701,1.559,0.020,-0.070,1.002,-0.040,0.885,2.502,-0.824,80.000,8803.000,1.000
5.214,5.363,5.829,6.223,3.708,7.067,1.519,0.461,-0.070,1.003,-0.043,0.885,2.411,-0.763,80.000,8804.000,1.000
4.469,4.175,4.628,4.050,3.371,6.712,1.946,0.532,-0.070,1.002,-0.044,0.946,2.441,-0.763,80.000,8805.000,1.000
4.192,3.668,3.690,2.146,3.090,6.778,3.021,1.226,-0.070,1.003,-0.042,0.977,2.350,-0.549,80.000,8806.000,1.000
3.406,3.599,2.392,0.533,2.349,6.838,4.254,2.507,-0.071,1.005,-0.039,1.099,2.289,-0.671,80.000,8807.000,1.000
1.558,2.770,0.515,-1.271,1.247,6.402,4.967,3.352,-0.071,1.004,-0.041,1.099,2.411,-0.610,80.000,8808.000,1.000
-1.051,0.563,-1.610,-3.531,0.188,5.391,4.936,2.993,-0.071,1.005,-0.038,1.007,2.441,-0.580,80.000,8809.000,1.000
-3.638,-2.170,-3.578,-5.796,-0.832,4.036,4.418,1.796,-0.069,1.003,-0.039,0.946,2.411,-0.458,80.000,8810.000,1.000
-5.509,-4.029,-5.246,-7.223,-2.184,2.495,3.665,0.716,-0.071,1.006,-0.038,0.946,2.441,-0.366,80.000,8811.000,1.000
-6.255,-4.574,-6.485,-7.319,-3.805,0.811,2.698,0.206,-0.070,1.003,-0.040,0.824,2.380,-0.397,80.000,8812.000,1.000
-5.620,-4.488,-6.883,-6.224,-4.853,-0.835,1.539,-0.021,-0.071,1.005,-0.041,0.854,2.319,-0.397,80.000,8813.000,1.000
-3.602,-4.450,-6.130,-4.427,-4.616,-2.205,0.304,-0.384,-0.069,1.005,-0.041,0.854,2.289,-0.305,80.000,8814.000,1.000
-0.787,-4.412,-4.650,-2.439,-3.598,-3.420,-1.060,-0.994,-0.069,1.005,-0.042,0.793,2.350,-0.336,80.000,8815.000,1.000
1.882,-4.025,-3.350,-0.622,-3.113,-4.942,-2.813,-1.767,-0.069,1.005,-0.044,0.763,2.319,-0.275,80.000,8816.000,1.000
3.892,-3.420,-2.648,0.835,-3.780,-6.984,-5.030,-2.767,-0.070,1.004,-0.041,0.732,2.380,-0.305,80.000,8817.000,1.000
5.551,-3.112,-2.070,1.868,-4.856,-9.031,-7.305,-4.227,-0.067,1.003,-0.043,0.641,2.411,-0.366,80.000,8818.000,1.000
7.535,-3.040,-0.848,2.612,-5.141,-10.028,-8.863,-6.065,-0.067,1.002,-0.042,0.641,2.411,-0.336,80.000,8819.000,1.000
9.981,-2.275,1.122,3.360,-4.304,-9.215,-9.112,-7.643,-0.068,1.003,-0.040,0.671,2.289,-0.397,80.000,8820.000,1.000
12.084,-0.126,3.016,4.218,-3.094,-6.850,-8.169,-8.344,-0.068,1.002,-0.040,0.702,2.502,-0.305,80.000,8821.000,1.000
12.847,2.819,3.975,4.956,-2.179,-3.845,-6.629,-8.127,-0.066,1.001,-0.041,0.580,2.625,-0.366,80.000,8822.000,1.000
12.255,5.357,4.232,5.489,-1.096,-0.701,-4.709,-7.178,-0.068,1.001,-0.042,0.671,2.563,-0.336,80.000,8823.000,1.000
11.443,7.199,5.007,6.412,1.283,2.915,-1.872,-5.158,-0.066,1.001,-0.043,0.702,2.563,-0.427,80.000,8824.000,1.000
11.594,9.310,7.185,8.710,5.300,7.417,2.465,-1.287,-0.066,1.000,-0.041,0.732,2.716,-0.427,80.000,8825.000,1.000
12.723,12.405,10.236,12.585,9.824,12.264,7.794,4.457,-0.069,1.000,-0.042,0.580,2.686,-0.458,80.000,8826.000,1.000
13.649,15.500,12.600,16.716,13.127,15.949,12.376,10.444,-0.067,1.001,-0.043,0.671,2.899,-0.458,80.000,8827.000,1.000
13.187,16.643,13.140,19.136,14.318,17.246,14.570,14.329,-0.067,1.002,-0.041,0.702,2.838,-0.488,80.000,8828.000,1.000
11.234,15.074,11.996,18.919,13.755,16.240,14.165,15.026,-0.067,1.001,-0.040,0.641,2.899,-0.427,80.000,8829.000,1.000
8.541,12.017,9.932,16.703,12.119,13.890,12.201,13.419,-0.067,1.001,-0.040,0.702,2.960,-0.458,80.000,8830.000,1.000
5.761,9.176,7.333,13.651,9.604,10.906,9.739,11.088,-0.067,0.999,-0.040,0.702,2.930,-0.519,80.000,8831.000,1.000
3.127,7.013,4.274,10.391,6.321,7.524,7.234,8.806,-0.067,1.000,-0.041,0.793,3.021,-0.519,80.000,8832.000,1.000
0.801,4.835,1.144,6.993,2.938,4.141,4.892,6.447,-0.067,0.999,-0.039,0.885,3.082,-0.427,80.000,8833.000,1.000
-0.946,2.290,-1.359,3.617,0.382,1.587,3.136,4.026,-0.067,0.999,-0.039,0.977,3.113,-0.519,80.000,8834.000,1.000
-1.925,0.253,-2.798,0.913,-0.926,0.602,2.529,2.361,-0.068,1.000,-0.038,1.099,3.296,-0.458,80.000,8835.000,1.000
-2.175,-0.120,-3.265,-0.376,-1.248,1.124,3.242,2.380,-0.069,0.999,-0.039,1.129,3.204,-0.488,80.000,8836.000,1.000
-1.831,1.122,-3.027,-0.117,-0.925,2.271,4.757,3.972,-0.071,0.997,-0.037,1.251,3.265,-0.458,80.000,8837.000,1.000
-0.913,2.709,-2.103,1.108,0.091,3.115,6.312,6.006,-0.070,0.999,-0.040,1.312,3.235,-0.397,80.000,8838.000,1.000
0.596,3.601,-0.443,2.567,1.880,3.345,7.522,7.492,-0.072,1.000,-0.041,1.434,3.143,-0.366,80.000,8839.000,1.000
2.422,3.951,1.530,3.846,3.872,3.172,8.388,8.318,-0.071,1.001,-0.037,1.556,3.082,-0.366,80.000,8840.000,1.000
3.887,4.399,2.864,4.721,4.948,2.741,8.786,8.682,-0.072,1.003,-0.034,1.556,3.021,-0.275,80.000,8841.000,1.000
4.394,4.910,2.904,4.940,4.485,1.935,8.336,8.333,-0.070,1.003,-0.036,1.648,3.082,-0.214,80.000,8842.000,1.000
4.038,4.866,2.087,4.423,3.092,0.778,6.905,6.825,-0.073,1.004,-0.039,1.678,3.082,-0.122,80.000,8843.000,1.000
3.457,4.089,1.476,3.481,1.862,-0.483,4.771,4.223,-0.071,1.002,-0.039,1.709,3.021,-0.061,80.000,8844.000,1.000
3.135,3.258,1.558,2.642,1.059,-1.812,2.188,1.184,-0.071,1.002,-0.037,1.770,3.082,-0.122,80.000,8845.000,1.000
3.085,3.150,1.913,2.251,0.054,-3.530,-0.885,-1.687,-0.071,1.000,-0.036,1.862,3.021,-0.122,80.000,8846.000,1.000
3.127,3.660,2.010,2.230,-1.533,-5.856,-4.555,-4.421,-0.070,1.001,-0.036,1.984,3.021,0.000,80.000,8847.000,1.000
3.347,4.023,2.035,2.369,-2.998,-8.305,-8.408,-7.262,-0.072,1.001,-0.036,2.075,2.960,0.000,80.000,8848.000,1.000
4.237,4.118,2.844,2.943,-2.982,-9.560,-11.124,-9.557,-0.072,1.003,-0.038,2.136,2.930,0.000,80.000,8849.000,1.000
6.188,4.981,5.047,4.698,-0.750,-8.336,-11.171,-9.698,-0.071,1.002,-0.036,2.228,2.869,0.000,80.000,8850.000,1.000
8.859,7.509,8.212,7.920,3.051,-4.606,-8.217,-6.671,-0.071,1.003,-0.038,2.319,2.808,-0.092,80.000,8851.000,1.000
11.364,11.056,11.230,11.820,7.140,0.348,-3.540,-1.323,-0.070,1.003,-0.036,2.258,2.899,0.000,80.000,8852.000,1.000
13.123,13.928,13.418,15.138,10.829,5.182,1.179,4.311,-0.068,1.004,-0.035,2.380,2.869,-0.092,80.000,8853.000,1.000
14.146,15.147,14.824,17.120,14.058,9.370,5.099,8.666,-0.069,1.006,-0.036,2.350,2.747,-0.153,80.000,8854.000,1.000
14.418,15.146,15.449,17.672,16.397,12.767,8.121,11.380,-0.068,1.005,-0.041,2.350,2.686,-0.183,80.000,8855.000,1.000
13.482,14.653,14.714,16.795,16.795,14.829,10.039,12.671,-0.069,1.004,-0.042,2.319,2.625,-0.244,80.000,8856.000,1.000
10.906,13.457,12.079,14.273,14.632,14.802,10.362,12.567,-0.065,1.005,-0.039,2.258,2.655,-0.153,80.000,8857.000,1.000
6.913,10.694,7.863,10.036,10.565,12.576,8.995,11.003,-0.067,1.005,-0.040,2.289,2.686,-0.305,80.000,8858.000,1.000
2.279,6.221,3.113,4.679,6.007,9.050,6.701,8.489,-0.067,1.006,-0.037,2.258,2.716,-0.336,80.000,8859.000,1.000
-2.244,1.301,-1.266,-0.553,1.957,5.529,4.637,6.234,-0.066,1.006,-0.039,2.228,2.594,-0.336,80.000,8860.000,1.000
-6.246,-2.398,-4.963,-4.464,-1.359,2.830,3.481,5.280,-0.066,1.005,-0.040,2.228,2.655,-0.427,80.000,8861.000,1.000
-9.378,-4.310,-7.845,-6.580,-3.785,1.083,3.194,5.660,-0.065,1.004,-0.038,2.136,2.747,-0.427,80.000,8862.000,1.000
-11.071,-5.090,-9.467,-7.116,-4.695,0.260,3.555,6.628,-0.068,1.005,-0.044,2.106,2.686,-0.488,80.000,8863.000,1.000
-10.900,-5.434,-9.407,-6.516,-3.622,0.446,4.525,7.562,-0.068,1.004,-0.044,1.953,2.594,-0.519,80.000,8864.000,1.000
-9.189,-5.282,-7.996,-5.185,-1.238,1.471,5.985,8.413,-0.067,1.004,-0.044,1.984,2.625,-0.641,80.000,8865.000,1.000
-6.952,-4.304,-6.288,-3.537,0.884,2.639,7.441,9.326,-0.068,1.005,-0.044,1.862,2.686,-0.702,80.000,8866.000,1.000
-5.122,-2.797,-5.149,-2.050,1.675,3.175,8.309,10.091,-0.068,1.006,-0.045,1.831,2.716,-0.610,80.000,8867.000,1.000
-3.996,-1.698,-4.622,-1.114,1.417,2.897,8.459,10.225,-0.066,1.005,-0.043,1.801,2.777,-0.702,80.000,8868.000,1.000
-3.452,-1.654,-4.312,-0.802,0.994,2.215,8.246,9.550,-0.067,1.004,-0.043,1.740,2.808,-0.793,80.000,8869.000,1.000
-3.488,-2.377,-4.147,-0.879,0.667,1.519,7.989,8.463,-0.068,1.005,-0.044,1.648,2.838,-0.824,80.000,8870.000,1.000
-4.259,-3.115,-4.452,-1.051,0.002,0.768,7.577,7.493,-0.069,1.005,-0.044,1.465,2.899,-0.854,80.000,8871.000,1.000
-5.647,-3.651,-5.351,-1.248,-1.144,-0.322,6.623,6.632,-0.070,1.004,-0.045,1.526,2.838,-0.885,80.000,8872.000,1.000
-6.985,-4.391,-6.311,-1.579,-2.132,-1.841,4.925,5.352,-0.069,1.003,-0.046,1.556,2.777,-0.824,80.000,8873.000,1.000
-7.292,-5.316,-6.357,-1.861,-2.141,-3.508,2.752,3.455,-0.068,1.002,-0.047,1.465,2.747,-0.824,80.000,8874.000,1.000
-5.820,-5.323,-4.715,-1.286,-0.969,-4.885,0.727,1.721,-0.068,1.003,-0.042,1.404,2.777,-0.946,80.000,8875.000,1.000
-2.488,-3.197,-1.295,1.103,0.965,-5.776,-0.655,1.300,-0.072,1.003,-0.041,1.282,2.838,-0.977,80.000,8876.000,1.000
2.114,0.822,3.335,5.430,3.236,-6.357,-1.471,2.387,-0.071,1.005,-0.042,1.129,2.655,-0.946,80.000,8877.000,1.000
7.112,5.038,8.370,10.646,5.788,-6.851,-2.168,3.908,-0.071,1.005,-0.043,1.099,2.716,-0.977,80.000,8878.000,1.000
11.806,8.077,13.179,15.355,8.705,-7.025,-2.803,4.827,-0.072,1.005,-0.044,1.007,2.686,-1.038,80.000,8879.000,1.000
15.767,10.194,17.311,18.816,11.764,-6.238,-2.739,5.340,-0.071,1.004,-0.044,0.946,2.655,-1.007,80.000,8880.000,1.000
18.693,12.524,20.339,20.983,14.440,-4.027,-1.280,6.360,-0.073,1.006,-0.044,0.977,2.625,-0.946,80.000,8881.000,1.000
20.419,15.435,22.008,21.890,16.496,-0.384,1.707,8.175,-0.070,1.003,-0.042,0.854,2.655,-0.916,80.000,8882.000,1.000
21.016,18.128,22.476,21.414,18.295,4.533,5.919,10.217,-0.069,1.003,-0.043,0.854,2.594,-0.885,80.000,8883.000,1.000
20.623,19.696,22.100,19.653,20.221,10.499,10.995,12.030,-0.071,1.004,-0.044,0.793,2.563,-0.916,80.000,8884.000,1.000
18.950,19.838,20.720,16.969,21.667,16.646,16.270,13.727,-0.071,1.006,-0.044,0.732,2.533,-0.793,80.000,8885.000,1.000
14.941,18.102,17.238,13.242,20.820,20.898,20.158,15.032,-0.073,1.004,-0.042,0.824,2.625,-0.610,80.000,8886.000,1.000
7.413,13.156,10.351,7.462,15.892,20.669,20.447,14.455,-0.072,1.004,-0.039,0.732,2.472,-0.702,80.000,8887.000,1.000
-3.563,3.914,0.024,-1.234,6.830,14.786,15.894,10.320,-0.073,1.003,-0.042,0.732,2.533,-0.641,80.000,8888.000,1.000
-15.969,-8.429,-11.863,-11.999,-4.258,4.861,7.636,2.825,-0.073,1.002,-0.043,0.702,2.502,-0.458,80.000,8889.000,1.000
-26.780,-20.154,-22.500,-22.133,-14.402,-5.494,-1.251,-5.405,-0.072,1.005,-0.045,0.610,2.563,-0.458,80.000,8890.000,1.000
-33.829,-27.560,-29.893,-28.879,-21.521,-13.055,-7.862,-11.296,-0.070,1.004,-0.043,0.610,2.563,-0.336,80.000,8891.000,1.000
-36.798,-29.775,-33.638,-31.358,-25.067,-16.717,-11.154,-13.702,-0.070,1.005,-0.045,0.610,2.594,-0.366,80.000,8892.000,1.000
-36.549,-28.687,-34.242,-30.596,-25.364,-17.123,-11.670,-13.515,-0.072,1.004,-0.044,0.702,2.502,-0.214,80.000,8893.000,1.000
-34.022,-26.438,-32.248,-28.005,-23.001,-15.310,-10.241,-11.920,-0.070,1.004,-0.046,0.702,2.563,-0.153,80.000,8894.000,1.000
-29.961,-23.645,-28.285,-24.339,-18.983,-12.137,-7.447,-9.298,-0.070,1.002,-0.046,0.610,2.594,-0.122,80.000,8895.000,1.000
-25.133,-19.986,-23.352,-19.959,-14.723,-8.483,-3.946,-5.788,-0.069,0.998,-0.044,0.610,2.655,-0.092,80.000,8896.000,1.000
-20.160,-15.662,-18.435,-15.404,-11.191,-5.200,-0.640,-2.178,-0.070,0.997,-0.043,0.671,2.686,-0.092,80.000,8897.000,1.000
-15.160,-11.598,-13.879,-11.316,-8.274,-2.717,1.717,0.317,-0.069,0.997,-0.042,0.671,2.686,-0.061,80.000,8898.000,1.000
-9.914,-8.362,-9.458,-7.929,-5.360,-0.951,2.935,1.161,-0.070,1.000,-0.043,0.732,2.625,-0.092,80.000,8899.000,1.000
-4.485,-5.463,-5.097,-4.924,-2.408,0.284,3.290,1.066,-0.068,1.002,-0.045,0.885,2.594,-0.061,80.000,8900.000,1.000
0.554,-2.126,-1.212,-1.913,-0.070,0.849,3.043,1.188,-0.070,1.002,-0.042,0.854,2.686,-0.061,80.000,8901.000,1.000
4.647,1.511,1.853,1.106,1.244,0.429,2.155,1.895,-0.066,1.005,-0.042,0.824,2.686,-0.092,80.000,8902.000,1.000
7.862,4.465,4.467,3.848,2.045,-0.890,0.583,2.606,-0.068,1.005,-0.043,0.763,2.716,-0.153,80.000,8903.000,1.000
10.751,6.226,7.412,6.195,3.252,-2.380,-1.273,2.784,-0.068,1.006,-0.044,0.702,2.686,-0.153,80.000,8904.000,1.000
13.682,7.590,10.968,8.411,5.186,-3.117,-2.634,2.716,-0.065,1.006,-0.045,0.702,2.808,-0.122,80.000,8905.000,1.000
16.397,9.733,14.517,10.779,7.313,-2.700,-3.004,3.055,-0.068,1.006,-0.046,0.580,2.808,-0.214,80.000,8906.000,1.000
18.296,12.571,17.084,13.046,8.930,-1.519,-2.652,3.803,-0.066,1.006,-0.043,0.641,2.869,-0.244,80.000,8907.000,1.000
19.086,14.621,18.106,14.451,9.834,-0.302,-2.261,4.223,-0.064,1.004,-0.044,0.580,3.021,-0.275,80.000,8908.000,1.000
18.925,14.585,17.611,14.399,10.189,0.555,-2.172,3.848,-0.067,1.001,-0.045,0.549,3.052,-0.336,80.000,8909.000,1.000
17.939,12.701,15.835,12.970,9.980,1.174,-2.077,3.217,-0.066,1.002,-0.045,0.641,3.113,-0.275,80.000,8910.000,1.000
15.925,10.180,12.923,10.663,8.928,1.817,-1.465,3.268,-0.065,1.001,-0.046,0.702,3.174,-0.336,80.000,8911.000,1.000
12.642,7.645,9.098,7.756,7.047,2.564,-0.164,4.129,-0.064,1.000,-0.041,0.671,3.235,-0.366,80.000,8912.000,1.000
8.278,4.706,4.941,4.216,4.987,3.446,1.677,4.995,-0.065,1.000,-0.043,0.824,3.265,-0.275,80.000,8913.000,1.000
3.523,1.074,1.224,0.230,3.510,4.634,3.942,5.228,-0.066,1.001,-0.042,0.854,3.387,-0.366,80.000,8914.000,1.000
-0.860,-2.551,-1.686,-3.524,2.639,6.170,6.536,5.113,-0.067,1.001,-0.041,0.793,3.357,-0.488,80.000,8915.000,1.000
-4.501,-5.169,-4.068,-6.390,1.579,7.532,8.955,5.201,-0.069,1.000,-0.044,0.946,3.265,-0.488,80.000,8916.000,1.000
-7.377,-6.772,-6.342,-8.335,-0.360,7.743,10.172,5.247,-0.071,1.000,-0.043,0.885,3.204,-0.488,80.000,8917.000,1.000
-9.412,-8.316,-8.407,-9.813,-2.922,6.200,9.322,4.321,-0.073,1.001,-0.041,0.916,3.174,-0.671,80.000,8918.000,1.000
-10.397,-10.276,-9.658,-11.054,-5.120,3.392,6.597,2.070,-0.073,1.001,-0.042,1.099,2.991,-0.854,80.000,8919.000,1.000
-10.321,-11.753,-9.629,-11.685,-6.225,0.639,3.321,-0.548,-0.073,1.002,-0.042,1.099,2.991,-1.007,80.000,8920.000,1.000
-9.537,-11.410,-8.446,-11.113,-6.213,-0.876,1.067,-1.971,-0.073,1.002,-0.039,1.221,2.808,-1.068,80.000,8921.000,1.000
-8.411,-9.086,-6.560,-9.227,-5.262,-0.804,0.696,-1.388,-0.074,1.004,-0.041,1.129,2.899,-0.977,80.000,8922.000,1.000
-6.912,-6.031,-4.225,-6.548,-3.271,0.524,2.151,0.812,-0.074,1.007,-0.040,1.160,2.838,-1.007,80.000,8923.000,1.000
-4.734,-3.492,-1.438,-3.686,-0.187,2.607,4.909,3.848,-0.072,1.007,-0.043,1.129,2.808,-1.007,80.000,8924.000,1.000
-1.854,-1.547,1.615,-0.865,3.336,4.893,8.271,7.334,-0.072,1.008,-0.040,1.190,2.838,-1.038,80.000,8925.000,1.000
1.187,0.354,4.331,1.874,6.016,6.528,11.191,10.934,-0.070,1.007,-0.042,1.099,2.747,-1.099,80.000,8926.000,1.000
3.674,2.129,6.143,4.262,6.972,6.563,12.396,13.702,-0.068,1.006,-0.040,1.099,2.686,-0.946,80.000,8927.000,1.000
5.387,3.058,7.155,5.923,6.533,4.678,11.189,14.484,-0.069,1.007,-0.039,1.068,2.716,-0.763,80.000,8928.000,1.000
6.812,3.060,8.107,6.945,5.830,1.593,8.094,13.107,-0.070,1.006,-0.038,0.977,2.777,-0.610,80.000,8929.000,1.000
8.661,3.357,9.661,8.034,5.671,-1.424,4.491,10.755,-0.067,1.007,-0.038,0.946,2.808,-0.488,80.000,8930.000,1.000
11.207,5.317,11.828,9.839,6.046,-3.441,1.555,8.855,-0.068,1.007,-0.042,0.916,2.808,-0.458,80.000,8931.000,1.000
14.165,8.866,14.203,12.210,6.673,-4.275,-0.404,7.701,-0.069,1.008,-0.042,0.824,2.899,-0.336,80.000,8932.000,1.000
17.063,12.483,16.515,14.272,7.621,-4.165,-1.716,6.451,-0.067,1.007,-0.038,0.793,2.991,-0.275,80.000,8933.000,1.000
19.517,14.779,18.638,15.195,8.995,-3.366,-2.796,4.324,-0.068,1.007,-0.040,0.732,2.899,-0.214,80.000,8934.000,1.000
21.169,15.726,20.209,14.800,10.268,-2.171,-3.873,1.513,-0.071,1.006,-0.041,0.732,2.991,0.000,80.000,8935.000,1.000
21.630,16.179,20.670,13.491,10.531,-1.051,-5.010,-1.152,-0.069,1.005,-0.038,0.641,2.838,0.153,80.000,8936.000,1.000
20.738,16.528,19.836,11.727,9.519,-0.479,-6.165,-3.229,-0.070,1.002,-0.036,0.580,2.930,0.122,80.000,8937.000,1.000
18.808,16.275,18.156,9.650,7.986,-0.514,-7.142,-5.028,-0.071,1.000,-0.036,0.702,2.808,0.000,80.000,8938.000,1.000
16.424,14.981,16.248,7.282,6.933,-0.656,-7.445,-6.790,-0.070,0.998,-0.041,0.580,2.869,0.031,80.000,8939.000,1.000
13.891,13.108,14.242,4.872,6.645,-0.244,-6.427,-7.899,-0.071,0.997,-0.042,0.671,2.747,0.031,80.000,8940.000,1.000
11.076,11.499,11.749,2.769,6.607,0.921,-3.881,-7.456,-0.072,0.997,-0.042,0.702,2.747,0.153,80.000,8941.000,1.000
7.978,10.354,8.655,1.131,6.421,2.565,-0.311,-5.410,-0.073,0.995,-0.040,0.885,2.686,0.061,80.000,8942.000,1.000
5.163,9.206,5.694,-0.045,6.483,4.497,3.542,-2.652,-0.073,0.994,-0.039,0.946,2.594,-0.061,80.000,8943.000,1.000
3.249,7.763,3.809,-0.786,7.328,6.776,7.155,-0.155,-0.071,0.994,-0.038,1.038,2.563,-0.183,80.000,8944.000,1.000
2.048,6.349,3.012,-1.211,8.495,9.197,10.098,1.627,-0.072,0.994,-0.037,1.160,2.563,-0.336,80.000,8945.000,1.000
0.535,5.272,2.228,-1.717,8.578,10.935,11.728,2.498,-0.071,0.993,-0.039,1.312,2.502,-0.366,80.000,8946.000,1.000
-2.207,3.982,0.303,-2.982,6.532,10.973,11.322,2.020,-0.070,0.993,-0.040,1.373,2.502,-0.458,80.000,8947.000,1.000
-6.058,1.481,-2.902,-5.469,2.737,8.992,8.734,-0.187,-0.066,0.994,-0.041,1.495,2.563,-0.519,80.000,8948.000,1.000
-9.858,-2.243,-6.382,-8.716,-1.306,5.799,4.898,-3.485,-0.065,0.995,-0.042,1.587,2.533,-0.580,80.000,8949.000,1.000
-12.286,-5.676,-8.843,-11.318,-4.261,2.678,1.354,-6.080,-0.066,0.997,-0.041,1.678,2.594,-0.641,80.000,8950.000,1.000
-12.788,-7.131,-9.662,-11.921,-5.805,0.266,-0.900,-6.339,-0.065,0.998,-0.042,1.617,2.563,-0.641,80.000,8951.000,1.000
-11.747,-6.468,-8.993,-10.271,-6.211,-1.769,-1.945,-4.140,-0.065,1.000,-0.040,1.740,2.777,-0.671,80.000,8952.000,1.000
-9.965,-5.067,-7.244,-7.241,-5.580,-3.980,-2.416,-0.766,-0.065,1.001,-0.041,1.801,2.899,-0.763,80.000,8953.000,1.000
-8.147,-4.168,-4.812,-3.974,-3.953,-6.395,-2.792,2.382,-0.066,1.003,-0.044,1.831,2.899,-0.793,80.000,8954.000,1.000
-6.723,-3.630,-2.252,-1.093,-1.914,-8.518,-3.249,4.771,-0.067,1.004,-0.041,1.709,2.930,-0.732,80.000,8955.000,1.000
-5.805,-2.518,-0.232,1.342,-0.450,-9.805,-3.869,6.544,-0.066,1.005,-0.042,1.801,2.960,-0.671,80.000,8956.000,1.000
-5.171,-0.645,0.877,3.275,-0.101,-9.988,-4.757,7.627,-0.067,1.006,-0.043,1.678,2.991,-0.610,80.000,8957.000,1.000
-4.424,1.017,1.240,4.317,-0.527,-9.049,-5.920,7.464,-0.069,1.006,-0.045,1.678,2.991,-0.610,80.000,8958.000,1.000
-3.364,1.556,1.244,4.105,-1.063,-7.078,-7.077,5.774,-0.070,1.005,-0.045,1.495,2.991,-0.641,80.000,8959.000,1.000
-2.343,1.168,0.930,2.775,-1.577,-4.377,-7.811,3.190,-0.071,1.007,-0.043,1.404,3.082,-0.610,80.000,8960.000,1.000
-2.179,0.581,-0.152,0.809,-2.543,-1.685,-8.006,0.708,-0.070,1.006,-0.046,1.282,3.052,-0.641,80.000,8961.000,1.000
-3.538,-0.212,-2.384,-1.502,-4.234,-0.026,-8.019,-1.339,-0.071,1.008,-0.042,1.343,3.021,-0.763,80.000,8962.000,1.000
-6.345,-2.013,-5.501,-4.236,-6.181,-0.133,-8.345,-3.471,-0.072,1.008,-0.044,1.282,3.082,-0.732,80.000,8963.000,1.000
-9.783,-5.109,-8.693,-7.377,-7.655,-1.959,-9.126,-6.134,-0.071,1.009,-0.043,1.160,3.174,-0.610,80.000,8964.000,1.000
-12.805,-8.375,-11.210,-10.311,-8.474,-4.720,-9.996,-8.851,-0.072,1.008,-0.040,1.068,3.021,-0.671,80.000,8965.000,1.000
-14.673,-10.225,-12.785,-12.126,-9.099,-7.516,-10.539,-10.717,-0.072,1.007,-0.044,0.946,3.082,-0.549,80.000,8966.000,1.000
-15.107,-10.317,-13.459,-12.426,-9.891,-9.862,-10.753,-11.595,-0.072,1.006,-0.041,0.977,2.960,-0.458,80.000,8967.000,1.000
-14.060,-9.768,-13.151,-11.590,-10.484,-11.536,-10.793,-12.218,-0.073,1.003,-0.043,0.977,2.899,-0.519,80.000,8968.000,1.000
-11.677,-9.693,-11.715,-10.245,-10.248,-12.277,-10.521,-13.149,-0.072,1.004,-0.043,0.946,2.869,-0.641,80.000,8969.000,1.000
-8.542,-10.018,-9.454,-8.735,-9.278,-11.927,-9.678,-14.122,-0.073,1.003,-0.042,0.916,2.869,-0.580,80.000,8970.000,1.000
-5.696,-9.980,-7.258,-7.169,-8.480,-10.770,-8.397,-14.573,-0.071,1.002,-0.043,0.916,2.808,-0.610,80.000,8971.000,1.000
-4.086,-9.481,-5.991,-5.814,-8.573,-9.490,-7.279,-14.540,-0.074,1.002,-0.041,0.916,2.747,-0.580,80.000,8972.000,1.000
-3.848,-9.306,-5.780,-5.105,-9.275,-8.643,-6.795,-14.591,-0.075,1.004,-0.040,0.885,2.716,-0.549,80.000,8973.000,1.000
-4.265,-9.879,-6.052,-5.175,-9.691,-8.212,-6.682,-14.813,-0.074,1.005,-0.041,0.885,2.686,-0.549,80.000,8974.000,1.000
-4.547,-10.425,-6.264,-5.602,-9.423,-7.778,-6.209,-14.408,-0.074,1.005,-0.041,0.946,2.716,-0.580,80.000,8975.000,1.000
-4.564,-9.895,-6.455,-5.860,-9.000,-7.149,-5.108,-12.636,-0.074,1.003,-0.042,0.885,2.686,-0.580,80.000,8976.000,1.000
-4.723,-8.468,-6.976,-5.968,-9.145,-6.674,-4.035,-9.985,-0.074,1.001,-0.040,0.793,2.594,-0.519,80.000,8977.000,1.000
-5.276,-7.532,-7.844,-6.435,-9.898,-6.814,-3.900,-7.913,-0.073,1.003,-0.041,0.854,2.563,-0.519,80.000,8978.000,1.000
-6.023,-8.131,-8.658,-7.542,-10.742,-7.607,-4.883,-7.336,-0.072,1.004,-0.043,0.977,2.472,-0.366,80.000,8979.000,1.000
-6.751,-9.881,-9.235,-8.934,-11.479,-8.758,-6.387,-7.743,-0.072,1.003,-0.041,0.946,2.441,-0.336,80.000,8980.000,1.000
-7.603,-11.585,-9.932,-10.016,-12.468,-10.086,-7.828,-7.953,-0.072,1.004,-0.043,1.099,2.441,-0.336,80.000,8981.000,1.000
-8.802,-12.693,-11.111,-10.583,-13.918,-11.646,-9.167,-7.496,-0.073,1.006,-0.042,1.099,2.411,-0.305,80.000,8982.000,1.000
-10.221,-13.710,-12.514,-10.956,-15.373,-13.410,-10.700,-6.970,-0.070,1.005,-0.044,0.946,2.533,-0.244,80.000,8983.000,1.000
-11.391,-15.038,-13.401,-11.433,-16.137,-14.930,-12.465,-7.021,-0.067,1.003,-0.044,0.916,2.441,-0.092,80.000,8984.000,1.000
-11.950,-15.966,-13.315,-11.807,-16.061,-15.475,-14.022,-7.382,-0.068,0.999,-0.045,0.977,2.533,0.000,80.000,8985.000,1.000
-12.071,-15.452,-12.645,-11.684,-15.711,-14.639,-14.889,-7.332,-0.069,0.998,-0.042,1.068,2.563,-0.122,80.000,8986.000,1.000
-12.284,-13.628,-12.225,-11.149,-15.605,-12.644,-14.988,-6.828,-0.069,0.998,-0.046,1.007,2.563,-0.031,80.000,8987.000,1.000
-12.781,-11.726,-12.331,-10.699,-15.410,-9.828,-14.371,-6.554,-0.070,1.000,-0.043,1.038,2.655,0.122,80.000,8988.000,1.000
-13.114,-10.489,-12.394,-10.549,-14.246,-6.153,-12.794,-6.855,-0.070,1.000,-0.045,1.129,2.594,0.092,80.000,8989.000,1.000
-12.796,-9.384,-11.852,-10.373,-11.902,-1.625,-10.034,-7.192,-0.070,0.999,-0.043,1.282,2.594,0.000,80.000,8990.000,1.000
-11.949,-7.658,-10.927,-9.807,-9.329,3.032,-6.545,-6.909,-0.071,1.000,-0.044,1.343,2.655,0.000,80.000,8991.000,1.000
-11.078,-5.697,-10.224,-8.988,-7.678,6.583,-3.438,-6.215,-0.072,1.000,-0.045,1.221,2.625,-0.061,80.000,8992.000,1.000
-10.340,-4.769,-9.849,-8.400,-7.118,8.270,-1.597,-6.001,-0.072,1.003,-0.046,1.160,2.594,-0.183,80.000,8993.000,1.000
-9.361,-5.453,-9.303,-8.230,-6.933,8.418,-0.939,-6.689,-0.072,1.001,-0.045,1.221,2.502,-0.275,80.000,8994.000,1.000
-7.836,-6.841,-8.263,-8.129,-6.640,7.891,-0.766,-7.723,-0.071,1.000,-0.044,1.160,2.502,-0.244,80.000,8995.000,1.000
-6.071,-7.601,-7.153,-7.723,-6.584,7.084,-0.760,-8.442,-0.070,1.003,-0.044,1.221,2.594,-0.214,80.000,8996.000,1.000
-4.696,-7.459,-6.628,-7.176,-7.213,5.724,-1.284,-9.077,-0.067,1.005,-0.045,1.251,2.594,-0.397,80.000,8997.000,1.000
-3.909,-7.165,-6.628,-6.956,-8.117,3.637,-2.645,-10.404,-0.065,1.004,-0.047,1.068,2.625,-0.366,80.000,8998.000,1.000
-3.244,-7.110,-6.333,-7.086,-8.313,1.335,-4.423,-12.537,-0.064,1.007,-0.047,1.099,2.594,-0.275,80.000,8999.000,1.000
-2.124,-6.551,-5.099,-6.893,-7.430,-0.383,-5.777,-14.478,-0.065,1.004,-0.047,1.068,2.594,-0.275,80.000,9000.000,1.000
-0.477,-4.551,-3.156,-5.674,-6.152,-1.243,-6.252,-15.029,-0.066,1.007,-0.047,0.916,2.716,-0.366,80.000,9001.000,1.000
1.285,-1.412,-1.245,-3.501,-5.279,-1.632,-6.069,-13.954,-0.066,1.008,-0.043,0.793,2.808,-0.244,80.000,9002.000,1.000
2.734,1.390,0.203,-1.222,-4.715,-1.894,-5.594,-12.029,-0.066,1.008,-0.042,0.732,2.899,-0.244,80.000,9003.000,1.000
3.647,2.711,1.224,0.320,-3.798,-1.879,-4.858,-10.073,-0.064,1.006,-0.045,0.702,3.113,-0.275,80.000,9004.000,1.000
3.867,2.813,1.797,0.930,-2.431,-1.327,-3.810,-8.264,-0.065,1.008,-0.046,0.519,3.204,-0.305,80.000,9005.000,1.000
3.272,2.783,1.642,0.954,-1.328,-0.373,-2.790,-6.440,-0.067,1.011,-0.043,0.366,3.143,-0.275,80.000,9006.000,1.000
2.010,3.116,0.677,0.697,-1.068,0.524,-2.491,-4.849,-0.065,1.009,-0.042,0.153,3.143,-0.214,80.000,9007.000,1.000
0.556,3.184,-0.693,0.075,-1.420,0.998,-3.432,-4.198,-0.067,1.009,-0.040,0.183,3.265,-0.244,80.000,9008.000,1.000
-0.610,2.166,-1.974,-1.062,-1.834,1.024,-5.425,-4.753,-0.068,1.007,-0.039,0.122,3.296,-0.214,80.000,9009.000,1.000
-1.419,0.136,-3.180,-2.425,-2.298,0.779,-7.610,-5.626,-0.069,1.007,-0.042,0.000,3.265,-0.244,80.000,9010.000,1.000
-2.331,-2.161,-4.854,-3.475,-3.394,0.285,-9.176,-5.493,-0.069,1.004,-0.040,-0.122,3.265,-0.244,80.000,9011.000,1.000
-4.022,-4.457,-7.422,-4.140,-5.475,-0.674,-9.961,-4.017,-0.069,1.004,-0.041,-0.153,3.235,-0.305,80.000,9012.000,1.000
-6.800,-7.214,-10.552,-4.922,-7.965,-2.116,-10.199,-2.062,-0.071,1.004,-0.040,-0.122,3.113,-0.397,80.000,9013.000,1.000
-10.290,-10.520,-13.277,-6.144,-9.739,-3.482,-9.890,-0.441,-0.071,1.004,-0.039,-0.214,3.174,-0.427,80.000,9014.000,1.000
-13.728,-13.315,-14.790,-7.418,-10.188,-3.987,-8.690,1.029,-0.073,1.002,-0.040,-0.183,3.143,-0.427,80.000,9015.000,1.000
-16.510,-14.261,-15.027,-8.071,-9.633,-3.298,-6.390,2.988,-0.072,1.002,-0.041,-0.183,3.143,-0.549,80.000,9016.000,1.000
-18.359,-13.283,-14.443,-7.941,-8.636,-1.713,-3.284,5.333,-0.073,1.000,-0.041,-0.092,2.991,-0.641,80.000,9017.000,1.000
-19.168,-11.749,-13.434,-7.569,-7.269,0.294,0.032,7.035,-0.073,0.999,-0.039,-0.031,2.899,-0.671,80.000,9018.000,1.000
-18.970,-10.989,-12.216,-7.618,-5.342,2.464,3.124,7.225,-0.072,0.999,-0.036,0.031,2.808,-0.793,80.000,9019.000,1.000
-18.050,-10.935,-11.094,-8.213,-3.137,4.633,5.862,6.163,-0.072,0.999,-0.040,0.122,2.747,-0.916,80.000,9020.000,1.000
-16.886,-10.553,-10.521,-8.986,-1.486,6.393,8.111,4.792,-0.072,1.001,-0.040,0.244,2.655,-0.885,80.000,9021.000,1.000
-15.812,-9.396,-10.664,-9.642,-0.986,7.155,9.506,3.509,-0.070,0.999,-0.039,0.275,2.502,-0.793,80.000,9022.000,1.000
-14.684,-8.131,-11.018,-10.194,-1.306,6.696,9.785,1.882,-0.070,1.000,-0.040,0.366,2.533,-0.916,80.000,9023.000,1.000
-12.941,-7.391,-10.696,-10.554,-1.492,5.472,9.278,-0.356,-0.071,1.000,-0.041,0.519,2.563,-0.793,80.000,9024.000,1.000
-10.129,-6.655,-9.173,-10.179,-0.922,4.252,8.809,-2.502,-0.072,1.000,-0.035,0.732,2.441,-0.824,80.000,9025.000,1.000
-6.460,-4.892,-6.725,-8.455,0.223,3.451,8.962,-3.490,-0.073,1.001,-0.036,0.702,2.441,-0.824,80.000,9026.000,1.000
-2.846,-2.202,-4.194,-5.563,1.385,2.838,9.470,-3.249,-0.073,1.002,-0.037,0.732,2.350,-0.702,80.000,9027.000,1.000
-0.315,-0.126,-2.418,-2.719,2.167,1.795,9.377,-3.018,-0.076,1.000,-0.039,0.793,2.319,-0.702,80.000,9028.000,1.000
0.686,-0.019,-1.832,-1.243,2.347,-0.140,7.882,-4.072,-0.076,1.003,-0.040,0.977,2.441,-0.641,80.000,9029.000,1.000
0.526,-1.410,-2.315,-1.268,1.757,-2.891,5.140,-6.213,-0.076,1.005,-0.041,1.007,2.258,-0.580,80.000,9030.000,1.000
0.176,-2.340,-3.142,-1.517,0.584,-5.860,2.253,-7.837,-0.076,1.004,-0.040,1.007,2.167,-0.580,80.000,9031.000,1.000
0.794,-1.236,-3.088,-0.504,-0.207,-8.226,0.438,-7.519,-0.075,1.004,-0.038,1.007,2.136,-0.488,80.000,9032.000,1.000
3.270,1.917,-0.931,2.105,0.777,-9.263,0.201,-5.284,-0.076,1.003,-0.039,1.099,2.075,-0.488,80.000,9033.000,1.000
7.761,6.181,3.731,5.374,4.116,-8.690,1.101,-2.284,-0.076,1.003,-0.039,1.160,2.197,-0.305,80.000,9034.000,1.000
13.478,10.841,9.930,8.104,8.663,-6.906,2.036,0.311,-0.075,1.003,-0.040,1.190,2.075,-0.336,80.000,9035.000,1.000
18.960,15.530,15.702,9.633,12.172,-4.851,1.774,1.797,-0.076,1.000,-0.038,1.190,2.106,-0.336,80.000,9036.000,1.000
22.852,19.555,19.329,9.849,13.116,-3.302,-0.352,1.758,-0.076,1.000,-0.038,1.282,1.953,-0.336,80.000,9037.000,1.000
24.685,21.934,20.465,9.026,11.956,-2.091,-3.798,0.191,-0.073,1.001,-0.040,1.343,1.831,-0.336,80.000,9038.000,1.000
24.932,22.338,20.033,7.838,10.483,-0.158,-6.902,-2.002,-0.073,1.003,-0.041,1.434,1.892,-0.336,80.000,9039.000,1.000
24.223,21.503,18.994,7.162,9.922,3.301,-7.990,-3.160,-0.072,1.001,-0.040,1.526,1.831,-0.244,80.000,9040.000,1.000
22.662,20.396,17.494,7.530,10.001,7.845,-6.546,-1.973,-0.073,1.001,-0.040,1.495,1.923,-0.153,80.000,9041.000,1.000
20.056,19.129,15.306,8.690,9.846,12.074,-3.354,1.404,-0.072,1.002,-0.043,1.495,1.953,-0.031,80.000,9042.000,1.000
16.564,17.040,12.644,9.733,9.193,14.781,0.328,5.434,-0.071,1.002,-0.043,1.617,1.953,-0.153,80.000,9043.000,1.000
12.813,13.878,10.131,9.782,8.374,15.762,3.627,8.474,-0.071,1.003,-0.042,1.617,1.984,-0.092,80.000,9044.000,1.000
9.446,10.645,8.175,8.711,7.580,15.683,6.317,10.012,-0.071,1.002,-0.038,1.556,1.984,-0.061,80.000,9045.000,1.000
6.728,8.857,6.693,7.129,6.620,15.311,8.453,10.552,-0.071,1.004,-0.039,1.617,2.106,0.061,80.000,9046.000,1.000
4.638,8.929,5.455,5.656,5.441,14.894,9.952,10.488,-0.070,1.002,-0.043,1.648,2.045,0.031,80.000,9047.000,1.000
3.198,9.754,4.530,4.486,4.567,14.372,10.775,9.680,-0.070,1.002,-0.044,1.648,2.045,0.061,80.000,9048.000,1.000
2.504,10.063,4.202,3.667,4.727,13.945,11.362,8.246,-0.070,1.003,-0.043,1.526,2.258,0.061,80.000,9049.000,1.000
2.372,9.733,4.411,3.408,5.926,13.974,12.378,7.055,-0.068,1.005,-0.041,1.465,2.228,0.000,80.000,9050.000,1.000
2.220,9.410,4.548,3.836,7.179,14.297,13.861,6.935,-0.069,1.004,-0.042,1.495,2.289,-0.061,80.000,9051.000,1.000
1.540,9.191,4.072,4.612,7.421,14.088,14.959,7.611,-0.068,1.004,-0.042,1.373,2.502,0.092,80.000,9052.000,1.000
0.419,8.360,3.178,5.090,6.579,12.612,14.776,7.935,-0.070,1.002,-0.044,1.434,2.502,0.031,80.000,9053.000,1.000
-0.569,6.537,2.586,5.010,5.468,9.953,13.344,7.222,-0.068,1.002,-0.039,1.434,2.655,0.000,80.000,9054.000,1.000
-0.994,4.522,2.688,4.856,4.697,6.814,11.478,5.988,-0.069,1.001,-0.040,1.282,2.655,-0.031,80.000,9055.000,1.000
-0.965,3.540,3.134,5.338,4.072,3.731,9.804,5.191,-0.068,1.002,-0.042,1.312,2.716,-0.061,80.000,9056.000,1.000
-0.823,3.844,3.447,6.686,3.284,0.776,8.272,5.081,-0.068,1.003,-0.042,1.282,2.808,-0.183,80.000,9057.000,1.000
-0.528,4.572,3.850,8.596,2.800,-2.004,6.665,5.148,-0.069,1.003,-0.042,1.190,2.838,-0.092,80.000,9058.000,1.000
0.431,4.972,5.120,10.785,3.495,-4.220,5.179,5.051,-0.067,1.001,-0.039,1.221,3.021,-0.092,80.000,9059.000,1.000
2.441,5.340,7.574,13.355,5.468,-5.469,4.189,5.177,-0.066,1.003,-0.039,1.129,3.021,-0.092,80.000,9060.000,1.000
5.286,6.405,10.555,16.475,7.738,-5.868,3.599,6.069,-0.068,1.001,-0.037,1.038,3.082,-0.214,80.000,9061.000,1.000
8.419,8.151,13.161,19.920,9.406,-5.874,2.875,7.580,-0.067,1.002,-0.040,0.946,3.143,-0.214,80.000,9062.000,1.000
11.617,9.851,15.322,23.209,10.809,-5.442,1.904,9.067,-0.069,1.003,-0.041,0.916,3.143,-0.153,80.000,9063.000,1.000
15.086,11.216,17.755,26.129,13.054,-3.745,1.466,10.335,-0.069,1.002,-0.042,0.946,3.296,-0.153,80.000,9064.000,1.000
18.829,12.930,20.825,28.838,16.426,-0.063,2.481,11.899,-0.068,1.002,-0.040,0.977,3.326,-0.183,80.000,9065.000,1.000
22.164,15.629,23.818,31.318,19.751,5.142,4.899,14.121,-0.070,1.004,-0.039,0.946,3.357,-0.122,80.000,9066.000,1.000
24.080,18.585,25.490,32.847,21.497,10.226,7.564,16.317,-0.070,1.004,-0.040,0.977,3.296,-0.214,80.000,9067.000,1.000
24.119,19.973,25.183,32.284,21.140,13.514,9.184,17.060,-0.071,1.003,-0.038,0.885,3.265,-0.275,80.000,9068.000,1.000
22.751,18.680,23.250,29.059,19.258,14.437,9.361,15.538,-0.071,1.003,-0.040,0.732,3.204,-0.183,80.000,9069.000,1.000
20.714,15.455,20.385,23.774,16.489,13.525,8.633,12.395,-0.072,1.003,-0.040,0.763,3.204,-0.183,80.000,9070.000,1.000
18.248,11.921,16.824,17.711,12.861,11.482,7.616,8.982,-0.071,1.003,-0.039,0.824,3.235,-0.153,80.000,9071.000,1.000
15.208,8.801,12.509,11.955,8.397,8.642,6.400,6.041,-0.070,1.004,-0.041,0.763,3.326,0.000,80.000,9072.000,1.000
11.690,5.640,7.887,7.092,3.964,5.344,4.945,3.489,-0.071,1.004,-0.037,0.641,3.235,-0.092,80.000,9073.000,1.000
8.154,2.122,4.014,3.524,0.912,2.306,3.663,1.335,-0.073,1.003,-0.038,0.671,3.235,0.061,80.000,9074.000,1.000
4.965,-1.025,1.653,1.661,-0.203,0.280,3.209,0.259,-0.072,1.003,-0.041,0.702,3.204,0.000,80.000,9075.000,1.000
2.054,-2.842,0.502,1.530,-0.170,-0.600,3.692,0.850,-0.073,1.004,-0.040,0.671,3.143,-0.031,80.000,9076.000,1.000
-0.871,-3.550,-0.457,2.258,-0.267,-0.943,4.362,2.459,-0.074,1.004,-0.039,0.732,3.143,0.092,80.000,9077.000,1.000
-3.858,-4.501,-1.930,2.345,-1.058,-1.496,4.290,3.406,-0.074,1.002,-0.040,0.793,3.082,0.153,80.000,9078.000,1.000
-6.581,-6.585,-3.885,0.766,-2.228,-2.491,3.249,2.547,-0.074,1.001,-0.044,0.763,2.930,0.214,80.000,9079.000,1.000
-8.690,-9.092,-6.014,-2.211,-3.401,-3.664,1.821,0.347,-0.074,1.001,-0.041,0.763,2.869,0.183,80.000,9080.000,1.000
-10.163,-10.525,-8.187,-5.334,-4.601,-4.774,0.716,-1.745,-0.074,1.001,-0.039,0.763,2.838,0.214,80.000,9081.000,1.000
-11.173,-10.377,-10.258,-7.450,-5.819,-5.884,0.188,-2.769,-0.072,1.001,-0.039,0.793,2.777,0.214,80.000,9082.000,1.000
-11.670,-9.605,-11.652,-8.159,-6.499,-7.107,0.126,-2.833,-0.073,1.002,-0.034,0.977,2.625,0.336,80.000,9083.000,1.000
-11.331,-9.303,-11.575,-7.538,-5.914,-8.330,0.449,-2.390,-0.072,1.000,-0.036,1.129,2.625,0.305,80.000,9084.000,1.000
-9.978,-9.370,-9.750,-5.609,-4.059,-9.380,1.086,-1.425,-0.071,1.000,-0.039,1.251,2.655,0.305,80.000,9085.000,1.000
-7.848,-8.873,-6.767,-2.386,-1.871,-10.390,1.603,0.294,-0.070,1.002,-0.040,1.343,2.655,0.214,80.000,9086.000,1.000
-5.384,-7.531,-3.603,1.556,-0.388,-11.751,1.176,2.334,-0.073,1.002,-0.041,1.312,2.625,0.214,80.000,9087.000,1.000
-2.877,-6.189,-0.887,4.953,0.155,-13.586,-0.763,3.518,-0.072,1.001,-0.043,1.251,2.472,0.275,80.000,9088.000,1.000
-0.371,-5.581,1.330,6.677,0.281,-15.272,-3.822,3.071,-0.069,1.003,-0.043,1.373,2.472,0.305,80.000,9089.000,1.000
2.129,-5.146,3.206,6.685,0.481,-15.700,-6.780,1.590,-0.070,1.004,-0.040,1.526,2.441,0.336,80.000,9090.000,1.000
4.429,-3.662,4.700,5.860,0.714,-14.163,-8.593,0.422,-0.069,1.004,-0.037,1.526,2.380,0.366,80.000,9091.000,1.000
6.240,-0.878,5.653,4.944,0.755,-10.937,-9.204,0.108,-0.068,1.003,-0.040,1.465,2.411,0.427,80.000,9092.000,1.000
7.512,2.126,6.220,3.956,0.798,-6.870,-9.227,-0.085,-0.067,1.004,-0.042,1.465,2.380,0.397,80.000,9093.000,1.000
8.564,4.387,6.981,2.757,1.389,-2.589,-8.992,-0.964,-0.066,1.004,-0.041,1.465,2.594,0.427,80.000,9094.000,1.000
9.691,6.208,8.395,1.762,2.679,1.666,-8.242,-2.276,-0.065,1.003,-0.042,1.465,2.411,0.336,80.000,9095.000,1.000
10.612,8.304,10.089,1.592,3.973,5.475,-6.803,-3.188,-0.066,1.004,-0.041,1.495,2.441,0.275,80.000,9096.000,1.000
10.585,10.243,11.037,2.178,4.368,8.014,-5.094,-3.548,-0.066,1.005,-0.040,1.465,2.380,0.275,80.000,9097.000,1.000
9.264,10.679,10.650,2.755,3.876,8.788,-3.553,-3.928,-0.067,1.003,-0.041,1.404,2.411,0.183,80.000,9098.000,1.000
7.188,9.095,9.373,2.777,3.444,8.315,-1.925,-4.471,-0.065,1.005,-0.040,1.404,2.289,0.153,80.000,9099.000,1.000
5.170,6.564,7.929,2.398,3.677,7.602,0.330,-4.441,-0.065,1.006,-0.040,1.404,2.411,0.275,80.000,9100.000,1.000
3.408,4.491,6.354,2.001,4.013,7.059,3.038,-3.209,-0.065,1.007,-0.042,1.343,2.563,0.244,80.000,9101.000,1.000
1.535,3.066,4.220,1.585,3.528,6.272,5.186,-1.233,-0.066,1.004,-0.041,1.282,2.594,0.122,80.000,9102.000,1.000
-0.599,1.366,1.583,0.838,2.186,4.826,5.940,0.330,-0.066,1.005,-0.041,1.282,2.686,0.061,80.000,9103.000,1.000
-2.563,-1.118,-0.806,-0.256,0.839,2.998,5.533,0.937,-0.063,1.003,-0.041,1.312,2.686,0.061,80.000,9104.000,1.000
-3.793,-3.556,-2.275,-1.087,0.133,1.478,4.983,1.279,-0.065,1.002,-0.039,1.373,2.777,0.092,80.000,9105.000,1.000
-4.185,-4.674,-2.865,-0.877,-0.132,0.584,4.994,2.402,-0.065,1.001,-0.038,1.282,2.747,0.122,80.000,9106.000,1.000
-4.058,-4.358,-3.020,0.512,-0.452,-0.030,5.331,4.352,-0.063,1.003,-0.041,1.282,2.777,0.061,80.000,9107.000,1.000
-3.648,-3.861,-2.891,2.351,-0.837,-0.895,5.242,5.969,-0.065,1.002,-0.042,1.404,2.838,-0.031,80.000,9108.000,1.000
-2.853,-4.354,-2.286,3.668,-0.980,-2.208,4.225,6.074,-0.065,1.002,-0.042,1.312,2.960,-0.153,80.000,9109.000,1.000
-1.536,-5.687,-1.253,4.050,-0.996,-3.911,2.303,4.627,-0.062,1.002,-0.042,1.373,2.960,-0.214,80.000,9110.000,1.000
0.162,-6.829,-0.294,3.706,-1.479,-6.022,-0.190,2.549,-0.063,1.001,-0.043,1.404,3.021,-0.153,80.000,9111.000,1.000
1.974,-7.210,0.203,2.872,-2.640,-8.578,-2.872,0.559,-0.065,1.001,-0.042,1.312,3.021,-0.122,80.000,9112.000,1.000
3.853,-7.139,0.513,1.476,-3.740,-11.227,-5.319,-1.374,-0.063,1.001,-0.040,1.312,2.960,-0.122,80.000,9113.000,1.000
5.944,-6.886,1.327,-0.410,-3.711,-13.104,-6.972,-3.342,-0.062,1.001,-0.041,1.312,3.021,-0.153,80.000,9114.000,1.000
8.218,-5.833,3.033,-2.029,-2.220,-13.349,-7.314,-4.692,-0.064,1.004,-0.042,1.465,2.930,-0.214,80.000,9115.000,1.000
10.199,-3.115,5.339,-2.275,0.078,-11.816,-6.337,-4.459,-0.066,1.005,-0.042,1.526,3.052,-0.244,80.000,9116.000,1.000
11.213,0.922,7.566,-0.728,2.297,-9.274,-4.753,-2.580,-0.067,1.005,-0.042,1.465,3.052,-0.153,80.000,9117.000,1.000
11.050,4.595,9.275,1.955,4.171,-6.747,-3.432,-0.118,-0.066,1.003,-0.044,1.465,2.930,-0.183,80.000,9118.000,1.000
10.280,6.569,10.572,4.768,6.041,-4.652,-2.612,1.970,-0.067,1.002,-0.041,1.404,3.052,-0.214,80.000,9119.000,1.000
9.788,7.232,11.728,7.282,8.078,-2.677,-1.843,3.859,-0.069,1.004,-0.042,1.312,3.174,-0.214,80.000,9120.000,1.000
10.011,7.964,12.654,9.633,9.817,-0.413,-0.715,6.308,-0.072,1.004,-0.042,1.404,3.052,-0.183,80.000,9121.000,1.000
10.670,9.311,12.977,11.739,10.662,2.174,0.615,9.283,-0.069,1.003,-0.041,1.465,2.960,-0.244,80.000,9122.000,1.000
11.127,10.457,12.578,12.911,10.653,4.926,1.753,11.626,-0.065,1.000,-0.042,1.434,2.930,-0.183,80.000,9123.000,1.000
10.861,10.460,11.697,12.429,10.311,7.792,2.671,12.198,-0.068,1.001,-0.041,1.404,2.869,-0.183,80.000,9124.000,1.000
9.638,9.461,10.448,10.379,9.816,10.708,3.720,11.038,-0.070,1.003,-0.042,1.343,2.838,-0.183,80.000,9125.000,1.000
7.464,8.326,8.567,7.678,8.759,13.260,5.132,9.165,-0.070,1.005,-0.043,1.373,2.930,-0.275,80.000,9126.000,1.000
4.509,7.246,5.791,5.193,6.809,14.686,6.639,7.364,-0.070,1.003,-0.040,1.282,2.838,-0.244,80.000,9127.000,1.000
1.112,5.355,2.345,3.052,4.341,14.438,7.714,5.596,-0.070,1.003,-0.040,1.312,2.655,-0.336,80.000,9128.000,1.000
-2.229,1.986,-1.137,0.962,2.159,12.735,8.126,3.669,-0.068,1.005,-0.039,1.282,2.655,-0.214,80.000,9129.000,1.000
-5.077,-2.177,-4.209,-1.114,0.553,10.361,8.037,1.998,-0.069,1.005,-0.040,1.282,2.563,-0.244,80.000,9130.000,1.000
-7.332,-5.693,-6.970,-2.921,-1.047,7.938,7.584,1.228,-0.070,1.005,-0.041,1.221,2.380,-0.244,80.000,9131.000,1.000
-9.179,-7.998,-9.694,-4.474,-3.298,5.553,6.610,1.247,-0.070,1.004,-0.041,1.129,2.350,-0.275,80.000,9132.000,1.000
-10.791,-9.966,-12.329,-6.347,-6.166,3.011,4.839,0.971,-0.070,1.002,-0.040,1.129,2.350,-0.275,80.000,9133.000,1.000
-12.161,-12.672,-14.557,-9.187,-9.189,0.228,2.227,-0.688,-0.068,1.002,-0.042,1.221,2.350,-0.366,80.000,9134.000,1.000
-13.145,-15.915,-16.195,-12.893,-12.202,-2.653,-0.893,-3.670,-0.069,1.004,-0.042,1.190,2.319,-0.305,80.000,9135.000,1.000
-13.566,-18.358,-17.307,-16.495,-15.337,-5.416,-4.006,-6.813,-0.069,1.004,-0.042,1.251,2.289,-0.214,80.000,9136.000,1.000
-13.290,-19.041,-17.918,-18.971,-18.330,-7.938,-6.713,-9.054,-0.069,1.003,-0.042,1.282,2.228,-0.153,80.000,9137.000,1.000
-12.205,-18.190,-17.690,-19.953,-20.161,-10.070,-8.746,-10.195,-0.069,1.004,-0.042,1.221,2.075,-0.031,80.000,9138.000,1.000
-10.169,-16.359,-16.034,-19.428,-19.670,-11.424,-9.714,-10.313,-0.067,1.004,-0.039,1.221,2.197,-0.061,80.000,9139.000,1.000
-7.208,-13.392,-12.747,-17.143,-16.601,-11.505,-9.149,-8.944,-0.067,1.004,-0.041,1.312,2.136,-0.092,80.000,9140.000,1.000
-3.745,-8.826,-8.433,-12.808,-11.917,-10.155,-6.975,-5.476,-0.067,1.006,-0.041,1.251,2.106,-0.153,80.000,9141.000,1.000
-0.301,-2.978,-3.937,-6.739,-6.784,-7.625,-3.659,-0.199,-0.067,1.004,-0.038,1.251,2.228,-0.153,80.000,9142.000,1.000
2.996,2.980,0.560,0.031,-1.465,-4.148,0.273,5.576,-0.067,1.004,-0.041,1.373,2.350,-0.122,80.000,9143.000,1.000
6.167,7.934,5.286,6.188,4.251,0.054,4.471,10.393,-0.066,1.005,-0.042,1.312,2.289,-0.092,80.000,9144.000,1.000
8.616,11.326,9.662,10.544,9.576,4.100,8.231,13.305,-0.068,1.003,-0.040,1.282,2.350,-0.031,80.000,9145.000,1.000
9.086,12.771,11.979,12.228,12.484,6.285,10.110,13.731,-0.067,1.006,-0.040,1.282,2.319,-0.031,80.000,9146.000,1.000
6.581,11.534,10.655,10.734,11.295,5.017,8.528,11.082,-0.068,1.006,-0.039,1.373,2.411,0.092,80.000,9147.000,1.000
1.283,6.928,5.645,6.066,6.200,0.112,3.001,5.002,-0.066,1.004,-0.041,1.251,2.502,0.031,80.000,9148.000,1.000
-5.362,-0.420,-1.408,-0.831,-0.870,-6.726,-5.067,-3.674,-0.066,1.006,-0.042,1.373,2.502,-0.122,80.000,9149.000,1.000
-11.450,-8.034,-8.286,-7.905,-7.637,-12.798,-12.893,-12.512,-0.064,1.006,-0.039,1.404,2.533,-0.061,80.000,9150.000,1.000
-15.686,-13.046,-13.477,-12.934,-12.674,-16.104,-17.954,-18.718,-0.064,1.003,-0.042,1.465,2.686,0.000,80.000,9151.000,1.000
-17.829,-14.497,-16.542,-15.001,-15.528,-16.420,-19.433,-21.138,-0.065,1.005,-0.040,1.465,2.655,-0.031,80.000,9152.000,1.000
-18.254,-13.841,-17.608,-14.914,-16.200,-14.830,-18.198,-20.774,-0.065,1.004,-0.042,1.434,2.716,-0.031,80.000,9153.000,1.000
-17.288,-13.027,-16.859,-14.069,-14.889,-12.457,-15.536,-19.247,-0.067,1.001,-0.040,1.434,2.625,-0.153,80.000,9154.000,1.000
-15.109,-12.582,-14.643,-13.189,-12.246,-9.818,-12.214,-17.202,-0.067,0.999,-0.043,1.648,2.655,-0.092,80.000,9155.000,1.000
-12.136,-11.937,-11.807,-12.362,-9.527,-7.254,-8.718,-14.500,-0.066,0.995,-0.041,1.709,2.808,-0.092,80.000,9156.000,1.000
-9.168,-11.078,-9.487,-11.865,-7.963,-5.380,-5.786,-11.469,-0.066,0.993,-0.039,1.770,2.808,-0.153,80.000,9157.000,1.000
-7.003,-10.992,-8.362,-12.352,-7.852,-4.702,-4.170,-9.183,-0.066,0.995,-0.042,1.831,2.808,-0.153,80.000,9158.000,1.000
-6.103,-12.411,-8.406,-14.166,-8.630,-5.101,-4.078,-8.458,-0.067,0.996,-0.041,2.014,2.747,-0.244,80.000,9159.000,1.000
-6.675,-14.746,-9.436,-16.799,-9.859,-6.035,-5.121,-8.986,-0.067,0.997,-0.042,2.075,2.930,-0.336,80.000,9160.000,1.000
-8.735,-16.592,-11.457,-19.141,-11.616,-7.043,-6.651,-9.667,-0.068,1.000,-0.042,2.106,2.716,-0.397,80.000,9161.000,1.000
-11.892,-17.207,-14.268,-20.328,-13.807,-7.917,-8.115,-9.720,-0.066,1.004,-0.043,2.136,2.808,-0.366,80.000,9162.000,1.000
-15.226,-17.066,-17.058,-20.330,-15.618,-8.520,-9.152,-9.251,-0.066,1.007,-0.045,2.197,2.838,-0.305,80.000,9163.000,1.000
-17.664,-16.854,-18.748,-19.625,-16.039,-8.626,-9.460,-8.640,-0.066,1.005,-0.043,2.136,2.869,-0.397,80.000,9164.000,1.000
-18.626,-16.375,-18.864,-18.463,-14.915,-8.132,-8.882,-7.778,-0.065,1.004,-0.047,2.106,2.960,-0.305,80.000,9165.000,1.000
-18.280,-14.915,-17.901,-16.752,-13.176,-7.371,-7.763,-6.328,-0.065,1.002,-0.045,2.045,2.960,-0.244,80.000,9166.000,1.000
-17.137,-12.423,-16.616,-14.564,-11.778,-6.888,-6.862,-4.487,-0.065,1.004,-0.047,1.984,3.021,-0.305,80.000,9167.000,1.000
-15.471,-9.703,-15.076,-12.313,-10.591,-6.751,-6.622,-2.945,-0.065,1.004,-0.047,2.045,3.052,-0.183,80.000,9168.000,1.000
-13.196,-7.267,-12.659,-10.258,-8.648,-6.276,-6.655,-1.976,-0.066,1.003,-0.048,2.136,2.991,-0.214,80.000,9169.000,1.000
-10.277,-4.554,-9.029,-8.097,-5.444,-4.662,-6.135,-0.954,-0.063,1.002,-0.049,2.136,3.021,-0.061,80.000,9170.000,1.000
-7.142,-0.752,-4.866,-5.429,-1.653,-1.838,-4.684,0.835,-0.064,1.003,-0.049,2.289,3.113,0.000,80.000,9171.000,1.000
-4.564,3.762,-1.444,-2.592,1.563,1.466,-2.764,3.006,-0.065,1.003,-0.046,2.228,3.082,0.061,80.000,9172.000,1.000
-3.068,7.389,0.494,-0.653,3.728,4.513,-1.107,4.194,-0.066,1.002,-0.049,2.167,3.143,0.031,80.000,9173.000,1.000
-2.516,8.901,1.242,-0.401,5.236,7.217,0.137,3.528,-0.069,1.000,-0.045,2.319,3.235,0.031,80.000,9174.000,1.000
-2.299,8.736,1.601,-1.474,6.560,9.967,1.551,1.663,-0.067,1.003,-0.045,2.228,3.082,-0.031,80.000,9175.000,1.000
-1.791,8.415,2.156,-2.642,7.699,12.956,3.732,0.074,-0.071,1.003,-0.045,2.167,3.143,-0.244,80.000,9176.000,1.000
-0.645,8.740,3.094,-3.013,8.465,15.745,6.487,-0.594,-0.073,1.006,-0.044,2.167,2.991,-0.305,80.000,9177.000,1.000
1.163,9.036,4.417,-2.841,8.907,17.531,8.859,-1.141,-0.071,1.006,-0.046,2.045,2.869,-0.427,80.000,9178.000,1.000
3.469,8.401,6.052,-2.956,9.208,17.841,10.003,-2.593,-0.072,1.008,-0.046,2.045,2.808,-0.671,80.000,9179.000,1.000
5.866,7.079,7.593,-3.674,9.179,16.805,9.751,-4.834,-0.070,1.009,-0.046,1.923,2.747,-0.702,80.000,9180.000,1.000
7.635,6.076,8.189,-4.575,8.183,14.768,8.332,-6.847,-0.071,1.008,-0.044,1.770,2.594,-0.763,80.000,9181.000,1.000
8.172,5.818,7.241,-5.109,5.970,12.086,6.046,-7.925,-0.068,1.010,-0.045,1.648,2.655,-0.763,80.000,9182.000,1.000
7.533,5.768,5.201,-5.082,3.382,9.316,3.416,-8.151,-0.066,1.010,-0.045,1.587,2.625,-0.763,80.000,9183.000,1.000
6.314,5.313,3.227,-4.665,1.701,7.151,1.215,-7.827,-0.064,1.009,-0.044,1.434,2.472,-0.854,80.000,9184.000,1.000
4.985,4.582,1.983,-4.131,1.274,5.910,-0.044,-6.917,-0.066,1.010,-0.044,1.343,2.563,-0.763,80.000,9185.000,1.000
3.466,4.062,1.030,-3.747,1.140,5.155,-0.623,-5.356,-0.066,1.010,-0.045,1.160,2.563,-0.671,80.000,9186.000,1.000
1.373,3.554,-0.520,-3.870,0.127,3.957,-1.447,-3.729,-0.065,1.009,-0.042,1.038,2.502,-0.641,80.000,9187.000,1.000
-1.303,2.130,-2.889,-4.789,-1.883,1.739,-3.222,-3.060,-0.067,1.008,-0.044,0.977,2.472,-0.580,80.000,9188.000,1.000
-3.850,-0.564,-5.290,-6.215,-3.888,-1.071,-5.592,-3.605,-0.066,1.008,-0.044,0.916,2.533,-0.488,80.000,9189.000,1.000
-5.338,-3.407,-6.698,-7.108,-4.897,-3.418,-7.327,-4.202,-0.065,1.006,-0.045,0.854,2.563,-0.519,80.000,9190.000,1.000
-5.458,-4.735,-6.795,-6.385,-4.823,-4.642,-7.436,-3.228,-0.065,1.005,-0.047,0.732,2.655,-0.519,80.000,9191.000,1.000
-4.604,-3.988,-5.919,-3.882,-4.052,-4.887,-5.935,-0.179,-0.066,1.004,-0.045,0.702,2.594,-0.519,80.000,9192.000,1.000
-3.201,-1.978,-4.300,-0.497,-2.540,-4.517,-3.478,3.956,-0.066,1.002,-0.045,0.732,2.594,-0.488,80.000,9193.000,1.000
-1.373,0.319,-1.883,2.558,0.055,-3.610,-0.644,7.776,-0.068,1.000,-0.046,0.641,2.533,-0.366,80.000,9194.000,1.000
0.766,2.793,1.131,4.612,3.437,-2.142,2.210,10.641,-0.067,0.999,-0.046,0.671,2.563,-0.305,80.000,9195.000,1.000
2.963,5.912,4.092,5.720,6.472,-0.314,4.677,12.644,-0.067,1.001,-0.043,0.671,2.563,-0.427,80.000,9196.000,1.000
5.075,9.517,6.439,6.103,8.115,1.403,6.092,13.633,-0.069,0.999,-0.042,0.702,2.533,-0.275,80.000,9197.000,1.000
7.222,12.344,8.190,5.644,8.236,2.528,5.806,12.777,-0.069,0.999,-0.043,0.732,2.472,-0.275,80.000,9198.000,1.000
9.577,13.129,9.733,4.200,7.459,2.904,3.822,9.515,-0.068,0.998,-0.041,0.854,2.350,-0.275,80.000,9199.000,1.000
12.016,11.971,11.240,2.255,6.389,2.771,1.007,4.621,-0.070,0.997,-0.044,0.854,2.228,-0.336,80.000,9200.000,1.000
13.993,10.125,12.373,0.830,5.239,2.479,-1.502,-0.181,-0.071,0.996,-0.042,0.854,2.197,-0.336,80.000,9201.000,1.000
14.892,8.565,12.698,0.612,4.201,2.240,-3.034,-3.670,-0.073,0.994,-0.041,0.916,2.106,-0.458,80.000,9202.000,1.000
14.562,7.257,12.285,1.359,3.786,2.177,-3.516,-5.872,-0.073,0.995,-0.041,1.007,2.106,-0.458,80.000,9203.000,1.000
13.376,5.904,11.654,2.266,4.394,2.450,-3.150,-7.400,-0.073,0.997,-0.041,1.160,1.923,-0.458,80.000,9204.000,1.000
11.808,4.930,11.140,2.825,5.659,3.188,-2.114,-8.380,-0.071,0.996,-0.042,1.251,1.862,-0.610,80.000,9205.000,1.000
10.157,5.231,10.603,3.214,6.656,4.315,-0.557,-8.278,-0.070,0.998,-0.041,1.251,1.831,-0.702,80.000,9206.000,1.000
8.674,6.956,9.858,3.872,6.926,5.579,1.332,-6.725,-0.070,0.997,-0.043,1.282,1.740,-0.793,80.000,9207.000,1.000
7.723,9.054,9.151,4.945,7.069,6.804,3.406,-4.082,-0.069,1.000,-0.047,1.282,1.709,-0.854,80.000,9208.000,1.000
7.580,10.304,8.949,6.277,8.000,7.973,5.595,-1.024,-0.068,1.001,-0.043,1.251,1.801,-0.885,80.000,9209.000,1.000
8.111,10.517,9.292,7.788,9.732,8.994,7.726,2.149,-0.067,1.004,-0.043,1.343,1.770,-0.854,80.000,9210.000,1.000
8.730,10.341,9.542,9.525,11.175,9.498,9.341,5.434,-0.068,1.006,-0.043,1.343,1.831,-0.793,80.000,9211.000,1.000
8.706,10.000,8.856,11.186,11.181,8.981,9.829,8.430,-0.070,1.007,-0.045,1.251,1.892,-0.641,80.000,9212.000,1.000
7.644,8.873,6.941,11.973,9.646,7.295,8.910,10.225,-0.068,1.007,-0.046,1.221,1.923,-0.732,80.000,9213.000,1.000
5.831,6.638,4.377,11.317,7.498,4.995,7.076,10.344,-0.068,1.007,-0.044,1.312,1.984,-0.580,80.000,9214.000,1.000
4.034,4.293,2.096,9.594,5.695,3.005,5.340,9.512,-0.068,1.006,-0.043,1.221,2.014,-0.427,80.000,9215.000,1.000
2.798,3.300,0.538,7.706,4.354,1.743,4.274,8.916,-0.069,1.008,-0.045,1.221,2.167,-0.458,80.000,9216.000,1.000
2.018,3.778,-0.583,5.989,2.921,0.698,3.349,8.727,-0.067,1.007,-0.044,1.221,2.228,-0.488,80.000,9217.000,1.000
1.318,4.206,-1.693,3.928,1.008,-0.986,1.514,7.862,-0.066,1.007,-0.044,1.282,2.319,-0.427,80.000,9218.000,1.000
0.655,3.114,-2.817,1.003,-1.235,-3.551,-1.618,5.386,-0.068,1.006,-0.043,1.221,2.289,-0.366,80.000,9219.000,1.000
