EEG 1,EEG 2,EEG 3,EEG 4,EEG 5,EEG 6,EEG 7,EEG 8,Accelerometer X,Accelerometer Y,Accelerometer Z,Gyroscope X,Gyroscope Y,Gyroscope Z,Battery Level,Counter,Validation Indicator
-11.826,-8.919,-7.412,-6.675,-6.228,0.811,-2.911,-3.249,-0.127,0.988,0.057,-0.244,0.153,-0.549,60.000,62385.000,1.000
-10.838,-9.761,-7.214,-5.972,-6.235,0.596,-1.212,-2.628,-0.125,0.986,0.058,0.061,0.214,-0.732,60.000,62386.000,1.000
-9.331,-9.579,-5.899,-4.382,-5.581,1.556,1.378,-0.653,-0.125,0.982,0.056,0.397,0.122,-0.916,60.000,62387.000,1.000
-7.955,-9.185,-4.287,-2.798,-5.023,2.339,3.167,1.291,-0.125,0.981,0.052,0.671,0.153,-1.099,60.000,62388.000,1.000
-7.628,-10.023,-3.988,-3.020,-5.613,0.843,2.363,0.988,-0.125,0.981,0.051,1.129,0.183,-1.190,60.000,62389.000,1.000
-8.750,-12.591,-5.581,-5.680,-7.781,-3.524,-1.420,-2.238,-0.125,0.979,0.049,1.617,0.305,-1.404,60.000,62390.000,1.000
-10.593,-15.553,-7.718,-9.199,-10.698,-8.896,-6.641,-6.590,-0.125,0.979,0.048,1.953,0.427,-1.465,60.000,62391.000,1.000
-11.771,-16.871,-8.461,-11.289,-12.747,-12.547,-10.889,-9.513,-0.128,0.979,0.050,2.319,0.549,-1.617,60.000,62392.000,1.000
-11.373,-15.723,-7.186,-11.114,-12.742,-13.254,-12.646,-10.068,-0.127,0.979,0.048,2.594,0.641,-1.801,60.000,62393.000,1.000
-9.459,-12.911,-4.707,-9.457,-10.620,-11.784,-12.044,-9.203,-0.127,0.977,0.049,2.991,0.732,-1.831,60.000,62394.000,1.000
-6.705,-9.693,-1.946,-7.221,-7.235,-9.449,-10.182,-8.122,-0.129,0.977,0.046,3.448,0.732,-1.831,60.000,62395.000,1.000
-3.987,-6.853,0.775,-4.700,-3.835,-6.943,-8.209,-7.228,-0.130,0.977,0.044,3.784,0.763,-2.014,60.000,62396.000,1.000
-2.124,-4.801,3.194,-2.270,-1.520,-4.558,-6.910,-6.584,-0.133,0.979,0.045,4.395,0.885,-2.106,60.000,62397.000,1.000
-1.613,-3.960,4.534,-0.992,-0.804,-2.839,-6.592,-6.593,-0.134,0.981,0.040,4.791,0.946,-2.136,60.000,62398.000,1.000
-2.472,-4.674,3.899,-1.948,-1.560,-2.509,-7.101,-7.683,-0.136,0.984,0.039,5.005,0.916,-2.167,60.000,62399.000,1.000
-4.303,-6.696,1.307,-4.935,-3.288,-3.640,-7.981,-9.418,-0.135,0.988,0.037,5.035,0.854,-2.228,60.000,62400.000,1.000
-6.486,-9.056,-2.009,-8.203,-5.364,-5.307,-8.698,-10.445,-0.135,0.990,0.037,5.310,0.885,-2.197,60.000,62401.000,1.000
-8.326,-10.648,-4.538,-9.758,-7.091,-6.276,-8.755,-9.565,-0.135,0.994,0.037,5.371,0.977,-2.106,60.000,62402.000,1.000
-9.124,-10.907,-5.614,-8.872,-7.714,-5.875,-7.695,-6.730,-0.139,0.999,0.036,5.554,0.854,-2.045,60.000,62403.000,1.000
-8.489,-9.988,-5.587,-6.292,-6.790,-4.263,-5.307,-2.952,-0.138,1.001,0.035,5.585,0.793,-1.892,60.000,62404.000,1.000
-6.756,-8.529,-5.130,-3.223,-4.690,-2.128,-1.966,0.664,-0.139,1.004,0.039,5.402,0.763,-1.770,60.000,62405.000,1.000
-4.819,-7.196,-4.537,-0.298,-2.405,-0.145,1.528,3.766,-0.138,1.008,0.036,5.127,0.580,-1.617,60.000,62406.000,1.000
-3.368,-6.415,-3.752,2.356,-0.719,1.318,4.501,6.584,-0.139,1.012,0.037,4.974,0.519,-1.373,60.000,62407.000,1.000
-2.500,-6.450,-2.948,4.344,0.236,2.001,6.622,9.069,-0.142,1.017,0.037,4.578,0.336,-1.129,60.000,62408.000,1.000
-1.840,-7.302,-2.493,5.103,0.809,1.739,7.852,10.823,-0.143,1.021,0.036,4.364,0.153,-0.824,60.000,62409.000,1.000
-0.866,-8.388,-2.221,4.900,1.423,0.851,8.445,11.910,-0.140,1.023,0.041,4.028,0.061,-0.549,60.000,62410.000,1.000
0.499,-8.907,-1.482,4.831,2.080,-0.038,8.640,12.904,-0.137,1.027,0.042,3.784,-0.122,-0.305,60.000,62411.000,1.000
1.609,-8.656,-0.092,5.538,2.321,-0.727,8.361,13.968,-0.136,1.034,0.045,3.235,-0.305,0.061,60.000,62412.000,1.000
1.731,-8.079,1.333,6.560,1.911,-1.542,7.456,14.577,-0.132,1.037,0.043,2.716,-0.458,0.427,60.000,62413.000,1.000
0.848,-7.551,2.152,7.152,1.307,-2.598,6.096,14.330,-0.130,1.038,0.048,2.228,-0.580,0.854,60.000,62414.000,1.000
-0.355,-6.911,2.493,7.360,1.236,-3.280,4.717,13.675,-0.125,1.037,0.048,1.709,-0.549,1.282,60.000,62415.000,1.000
-1.155,-5.781,3.051,7.903,1.964,-2.679,3.684,13.582,-0.123,1.034,0.050,1.251,-0.641,1.617,60.000,62416.000,1.000
-1.214,-4.154,4.190,9.103,3.191,-0.513,3.157,14.560,-0.122,1.032,0.050,0.916,-0.702,1.923,60.000,62417.000,1.000
-0.513,-2.525,5.490,10.281,4.550,2.510,3.202,16.104,-0.120,1.026,0.051,0.549,-0.763,2.289,60.000,62418.000,1.000
0.731,-1.484,6.195,10.393,5.864,5.274,3.837,17.222,-0.120,1.023,0.052,0.214,-0.916,2.502,60.000,62419.000,1.000
2.082,-1.171,6.045,9.203,6.987,7.153,5.028,17.540,-0.120,1.013,0.052,0.122,-0.916,2.777,60.000,62420.000,1.000
3.142,-1.123,5.592,7.646,7.731,8.348,6.660,17.657,-0.123,1.008,0.053,0.183,-1.038,2.808,60.000,62421.000,1.000
3.841,-0.774,5.536,6.761,7.960,9.258,8.318,18.095,-0.127,1.001,0.053,0.305,-1.099,2.838,60.000,62422.000,1.000
4.353,-0.133,5.838,6.435,7.562,9.685,9.157,18.164,-0.128,0.994,0.055,0.305,-1.373,2.594,60.000,62423.000,1.000
4.877,0.253,5.823,5.676,6.446,9.044,8.429,16.556,-0.132,0.991,0.053,0.671,-1.617,2.411,60.000,62424.000,1.000
5.608,0.044,5.217,4.129,4.711,7.349,6.244,13.081,-0.133,0.986,0.053,1.038,-1.831,2.136,60.000,62425.000,1.000
6.723,-0.443,4.635,2.700,2.771,5.520,3.569,9.184,-0.134,0.983,0.058,1.312,-2.228,1.923,60.000,62426.000,1.000
8.296,-0.564,4.848,2.461,1.298,4.606,1.547,6.584,-0.136,0.983,0.058,1.740,-2.594,1.465,60.000,62427.000,1.000
10.301,0.116,5.913,3.368,0.975,4.964,0.936,5.784,-0.135,0.986,0.058,2.106,-2.930,1.099,60.000,62428.000,1.000
12.613,1.626,7.246,4.418,2.073,6.234,1.893,6.025,-0.132,0.990,0.058,2.625,-3.265,0.732,60.000,62429.000,1.000
14.946,3.783,8.410,4.921,4.215,7.952,4.007,6.454,-0.132,0.992,0.057,2.869,-3.448,0.580,60.000,62430.000,1.000
16.898,6.391,9.535,5.169,6.627,9.976,6.558,6.908,-0.129,1.000,0.057,3.113,-3.876,0.122,60.000,62431.000,1.000
18.135,9.144,10.778,5.683,8.611,12.212,8.828,7.388,-0.126,1.004,0.057,3.296,-4.150,-0.122,60.000,62432.000,1.000
18.539,11.483,11.696,6.225,9.839,14.206,10.336,7.371,-0.122,1.006,0.054,3.784,-4.333,-0.336,60.000,62433.000,1.000
18.210,12.835,11.618,6.057,10.399,15.437,11.001,6.279,-0.120,1.006,0.054,3.754,-4.425,-0.580,60.000,62434.000,1.000
17.424,13.087,10.607,5.105,10.611,15.964,11.152,4.501,-0.117,1.003,0.050,4.028,-4.456,-0.793,60.000,62435.000,1.000
16.566,12.686,9.623,4.356,10.785,16.405,11.325,3.408,-0.116,0.999,0.050,4.181,-4.547,-0.977,60.000,62436.000,1.000
15.950,12.153,9.469,4.732,11.071,17.132,11.932,4.071,-0.114,0.993,0.049,4.700,-4.456,-1.129,60.000,62437.000,1.000
15.600,11.534,9.759,5.766,11.376,17.659,12.948,6.030,-0.113,0.990,0.049,5.219,-4.486,-1.221,60.000,62438.000,1.000
15.219,10.450,9.263,5.916,11.345,17.041,13.778,7.577,-0.111,0.987,0.050,5.707,-4.456,-1.404,60.000,62439.000,1.000
14.456,8.751,7.261,4.263,10.564,14.932,13.552,7.356,-0.110,0.985,0.050,6.073,-4.425,-1.465,60.000,62440.000,1.000
13.290,6.956,4.315,1.549,8.988,12.124,11.868,5.563,-0.110,0.989,0.052,6.439,-4.242,-1.556,60.000,62441.000,1.000
12.131,5.864,1.592,-0.711,7.146,9.890,9.274,3.482,-0.111,0.989,0.051,6.683,-4.150,-1.709,60.000,62442.000,1.000
11.390,5.737,-0.372,-1.855,5.762,8.840,6.848,2.056,-0.111,0.990,0.051,7.141,-4.059,-1.862,60.000,62443.000,1.000
11.020,6.105,-1.900,-2.451,5.166,8.639,5.408,1.261,-0.113,0.990,0.047,7.477,-4.028,-1.953,60.000,62444.000,1.000
10.670,6.412,-3.224,-3.160,5.159,8.759,5.155,0.781,-0.116,0.990,0.050,7.721,-3.937,-2.045,60.000,62445.000,1.000
10.261,6.627,-3.783,-3.749,5.420,9.127,5.845,0.680,-0.121,0.991,0.049,8.057,-3.967,-2.075,60.000,62446.000,1.000
10.243,7.092,-2.824,-3.501,5.916,9.875,7.092,1.109,-0.122,0.989,0.045,8.118,-4.059,-2.136,60.000,62447.000,1.000
11.208,7.928,-0.508,-2.309,6.821,10.709,8.513,1.702,-0.125,0.984,0.041,8.514,-4.028,-2.380,60.000,62448.000,1.000
13.376,8.828,2.095,-0.783,8.132,10.927,9.740,1.785,-0.127,0.983,0.041,8.789,-4.089,-2.472,60.000,62449.000,1.000
16.521,9.562,4.258,0.805,9.551,10.232,10.502,1.289,-0.128,0.981,0.038,8.972,-4.242,-2.625,60.000,62450.000,1.000
20.300,10.451,6.409,3.081,10.770,9.222,10.831,1.079,-0.128,0.980,0.038,9.186,-4.333,-2.686,60.000,62451.000,1.000
24.354,11.965,9.292,6.551,11.693,8.764,11.067,1.989,-0.126,0.980,0.037,9.613,-4.456,-2.808,60.000,62452.000,1.000
27.988,13.814,12.534,10.316,12.266,8.980,11.487,3.684,-0.126,0.979,0.032,9.949,-4.486,-2.899,60.000,62453.000,1.000
30.003,14.763,14.513,12.367,12.122,9.086,11.846,4.750,-0.125,0.980,0.029,10.071,-4.608,-3.021,60.000,62454.000,1.000
29.187,13.488,13.703,11.289,10.542,8.104,11.342,3.927,-0.123,0.982,0.028,10.223,-4.639,-3.021,60.000,62455.000,1.000
25.255,9.713,10.065,7.519,7.093,5.698,9.296,1.217,-0.121,0.985,0.021,10.620,-4.578,-2.991,60.000,62456.000,1.000
19.430,4.569,5.106,2.894,2.424,2.415,6.007,-2.175,-0.122,0.985,0.020,10.803,-4.486,-2.808,60.000,62457.000,1.000
13.902,-0.176,0.678,-0.889,-1.863,-0.792,2.721,-4.942,-0.121,0.986,0.019,10.986,-4.517,-2.777,60.000,62458.000,1.000
10.493,-3.185,-2.133,-3.180,-4.326,-3.118,0.680,-6.531,-0.122,0.986,0.018,11.017,-4.395,-2.747,60.000,62459.000,1.000
9.586,-4.084,-3.132,-4.004,-4.731,-4.101,0.270,-7.022,-0.123,0.987,0.017,11.078,-4.395,-2.716,60.000,62460.000,1.000
10.134,-3.436,-2.627,-3.528,-4.072,-3.777,0.933,-6.742,-0.125,0.988,0.015,11.200,-4.272,-2.472,60.000,62461.000,1.000
10.732,-2.301,-1.216,-2.159,-3.564,-2.790,1.747,-6.217,-0.127,0.986,0.015,11.169,-4.242,-2.380,60.000,62462.000,1.000
10.831,-1.549,0.376,-0.657,-3.572,-1.991,2.173,-6.070,-0.130,0.984,0.015,11.261,-4.303,-2.228,60.000,62463.000,1.000
10.889,-1.394,1.669,0.302,-3.568,-1.778,2.315,-6.532,-0.131,0.984,0.014,11.322,-4.425,-2.136,60.000,62464.000,1.000
11.462,-1.466,2.734,0.722,-3.023,-1.835,2.538,-7.116,-0.132,0.983,0.011,11.414,-4.456,-2.075,60.000,62465.000,1.000
12.476,-1.211,3.976,1.216,-2.040,-1.512,2.997,-6.985,-0.134,0.982,0.010,11.322,-4.578,-2.075,60.000,62466.000,1.000
13.452,-0.292,5.530,2.218,-1.084,-0.472,3.587,-5.780,-0.134,0.983,0.010,11.353,-4.791,-1.953,60.000,62467.000,1.000
14.085,1.194,6.955,3.381,-0.395,0.953,4.173,-4.013,-0.135,0.985,0.007,11.292,-5.005,-1.740,60.000,62468.000,1.000
14.398,2.810,7.639,3.955,0.128,2.076,4.751,-2.518,-0.134,0.982,0.003,11.292,-5.249,-1.678,60.000,62469.000,1.000
14.518,4.146,7.511,3.779,0.645,2.560,5.395,-1.550,-0.135,0.984,0.003,11.322,-5.402,-1.678,60.000,62470.000,1.000
14.586,5.124,7.274,3.599,1.218,2.713,6.151,-0.601,-0.136,0.987,0.005,11.169,-5.554,-1.526,60.000,62471.000,1.000
14.770,5.822,7.720,4.138,1.870,2.943,6.941,0.755,-0.136,0.987,-0.001,11.108,-5.829,-1.373,60.000,62472.000,1.000
15.200,6.160,8.912,5.135,2.646,3.087,7.559,2.138,-0.136,0.987,-0.003,10.864,-6.042,-1.312,60.000,62473.000,1.000
15.864,5.965,10.260,5.714,3.557,2.548,7.786,2.799,-0.137,0.989,-0.002,10.712,-6.226,-1.129,60.000,62474.000,1.000
16.519,5.240,11.235,5.452,4.348,0.972,7.412,2.494,-0.137,0.993,-0.008,10.468,-6.439,-1.129,60.000,62475.000,1.000
16.772,4.204,11.736,4.690,4.481,-1.354,6.237,1.605,-0.137,0.993,-0.009,10.315,-6.622,-1.099,60.000,62476.000,1.000
16.374,3.094,11.813,3.906,3.618,-3.737,4.301,0.526,-0.136,0.994,-0.010,10.071,-6.866,-1.099,60.000,62477.000,1.000
15.377,1.937,11.241,3.030,2.022,-5.686,1.954,-0.830,-0.137,0.994,-0.011,9.888,-7.080,-1.099,60.000,62478.000,1.000
14.018,0.605,9.688,1.651,0.298,-7.200,-0.512,-2.815,-0.136,0.993,-0.011,9.521,-7.294,-0.977,60.000,62479.000,1.000
12.608,-0.757,7.450,-0.087,-1.056,-8.354,-3.073,-5.273,-0.135,0.993,-0.013,9.338,-7.507,-0.946,60.000,62480.000,1.000
11.333,-1.642,5.527,-1.337,-1.888,-8.912,-5.767,-7.397,-0.136,0.993,-0.015,9.033,-7.599,-0.946,60.000,62481.000,1.000
10.005,-1.798,4.560,-1.677,-2.393,-8.717,-8.468,-8.631,-0.137,0.994,-0.013,8.789,-7.751,-0.885,60.000,62482.000,1.000
8.192,-1.722,4.028,-1.903,-2.898,-8.230,-10.877,-9.289,-0.138,0.995,-0.015,8.606,-7.874,-0.977,60.000,62483.000,1.000
5.629,-2.344,2.803,-3.242,-3.663,-8.338,-12.729,-10.026,-0.138,0.996,-0.016,8.240,-7.843,-0.885,60.000,62484.000,1.000
2.434,-4.238,0.361,-5.940,-4.889,-9.592,-14.026,-10.979,-0.139,0.998,-0.020,7.996,-7.965,-0.916,60.000,62485.000,1.000
-0.960,-7.099,-2.690,-8.914,-6.629,-11.723,-14.906,-11.646,-0.139,1.000,-0.020,7.599,-8.148,-0.824,60.000,62486.000,1.000
-4.028,-10.011,-5.305,-10.873,-8.596,-13.999,-15.343,-11.575,-0.140,1.001,-0.019,7.233,-8.270,-0.977,60.000,62487.000,1.000
-6.479,-12.263,-7.113,-11.615,-10.302,-16.041,-15.248,-11.097,-0.140,1.002,-0.020,6.836,-8.301,-1.099,60.000,62488.000,1.000
-8.360,-13.715,-8.543,-11.961,-11.439,-17.943,-14.709,-11.088,-0.139,1.002,-0.020,6.378,-8.423,-1.007,60.000,62489.000,1.000
-9.796,-14.361,-9.891,-12.469,-11.940,-19.496,-13.810,-11.844,-0.140,1.004,-0.021,5.859,-8.392,-0.946,60.000,62490.000,1.000
-10.774,-13.995,-10.819,-12.736,-11.845,-19.860,-12.455,-12.600,-0.138,1.004,-0.022,5.493,-8.423,-1.038,60.000,62491.000,1.000
-11.238,-12.571,-10.981,-12.222,-11.270,-18.437,-10.616,-12.493,-0.137,1.003,-0.024,5.005,-8.453,-1.007,60.000,62492.000,1.000
-11.245,-10.570,-10.669,-11.239,-10.377,-15.717,-8.554,-11.613,-0.135,1.001,-0.023,4.700,-8.423,-0.916,60.000,62493.000,1.000
-11.000,-8.775,-10.535,-10.636,-9.360,-12.933,-6.696,-10.779,-0.135,1.001,-0.025,4.181,-8.240,-0.824,60.000,62494.000,1.000
-10.782,-7.660,-10.759,-10.665,-8.448,-10.899,-5.327,-10.428,-0.134,1.000,-0.028,3.662,-8.118,-0.763,60.000,62495.000,1.000
-10.811,-7.111,-10.809,-10.668,-7.872,-9.530,-4.497,-10.200,-0.132,0.997,-0.025,3.326,-7.996,-0.641,60.000,62496.000,1.000
-11.205,-6.926,-10.258,-10.149,-7.867,-8.740,-4.413,-9.782,-0.132,0.996,-0.026,2.899,-7.843,-0.549,60.000,62497.000,1.000
-11.956,-7.271,-9.521,-9.641,-8.577,-9.135,-5.562,-9.619,-0.131,0.996,-0.026,2.441,-7.629,-0.458,60.000,62498.000,1.000
-12.764,-8.233,-9.320,-10.051,-9.798,-11.164,-7.965,-10.299,-0.129,0.995,-0.025,2.106,-7.294,-0.183,60.000,62499.000,1.000
-13.050,-9.265,-9.667,-11.371,-11.045,-14.097,-10.709,-11.523,-0.126,0.995,-0.022,1.740,-6.989,0.061,60.000,62500.000,1.000
-12.309,-9.435,-9.735,-12.488,-11.903,-16.414,-12.561,-12.172,-0.124,0.995,-0.020,1.587,-6.775,0.183,60.000,62501.000,1.000
-10.415,-8.173,-8.739,-12.337,-12.162,-17.030,-12.913,-11.513,-0.122,0.994,-0.018,1.312,-6.470,0.458,60.000,62502.000,1.000
-7.599,-5.681,-6.713,-10.972,-11.670,-15.923,-12.001,-10.048,-0.121,0.996,-0.021,0.763,-6.195,0.763,60.000,62503.000,1.000
-4.268,-2.718,-4.312,-9.274,-10.297,-13.794,-10.415,-8.846,-0.119,0.995,-0.019,0.397,-5.798,1.038,60.000,62504.000,1.000
-0.889,0.060,-1.975,-7.723,-8.091,-11.291,-8.612,-8.177,-0.117,0.996,-0.020,0.031,-5.341,1.282,60.000,62505.000,1.000
2.209,2.644,0.540,-5.814,-5.247,-8.475,-6.712,-7.134,-0.117,0.997,-0.018,-0.427,-4.913,1.617,60.000,62506.000,1.000
4.956,5.415,3.628,-2.933,-1.939,-5.104,-4.564,-4.709,-0.116,0.999,-0.012,-0.824,-4.303,2.075,60.000,62507.000,1.000
7.364,8.347,6.959,0.525,1.647,-1.391,-1.933,-0.964,-0.115,1.000,-0.012,-1.160,-3.845,2.380,60.000,62508.000,1.000
9.472,10.992,9.679,3.596,5.332,2.070,1.454,3.305,-0.114,1.002,-0.008,-1.740,-3.448,2.777,60.000,62509.000,1.000
11.523,13.266,11.500,6.158,9.076,5.192,5.854,7.766,-0.113,1.006,-0.006,-2.228,-2.899,3.052,60.000,62510.000,1.000
13.583,15.426,12.817,8.864,12.670,8.377,11.012,12.499,-0.112,1.009,-0.004,-2.716,-2.350,3.357,60.000,62511.000,1.000
14.792,16.947,13.440,11.402,15.166,11.203,15.608,16.649,-0.112,1.011,-0.002,-3.326,-1.770,3.632,60.000,62512.000,1.000
13.609,16.201,12.033,11.840,15.149,11.811,17.622,18.131,-0.112,1.013,-0.002,-3.754,-1.373,3.906,60.000,62513.000,1.000
9.224,11.901,7.489,8.508,11.987,8.433,15.741,15.428,-0.112,1.013,0.003,-4.486,-0.854,4.303,60.000,62514.000,1.000
2.337,4.522,0.445,1.994,6.452,1.307,10.318,9.224,-0.111,1.014,0.008,-5.035,-0.427,4.608,60.000,62515.000,1.000
-5.483,-3.965,-7.059,-5.279,0.031,-7.427,2.790,1.753,-0.111,1.015,0.010,-5.615,0.092,4.822,60.000,62516.000,1.000
-12.534,-11.270,-13.013,-10.942,-5.780,-15.277,-5.258,-4.980,-0.108,1.015,0.011,-6.165,0.702,5.127,60.000,62517.000,1.000
-17.150,-15.610,-16.298,-13.814,-9.529,-20.467,-12.192,-9.954,-0.111,1.014,0.011,-6.744,1.068,5.341,60.000,62518.000,1.000
-18.175,-16.192,-16.733,-13.839,-10.126,-22.147,-16.317,-12.728,-0.112,1.014,0.016,-7.416,1.526,5.524,60.000,62519.000,1.000
-15.921,-13.609,-14.913,-11.733,-7.784,-20.517,-16.772,-13.175,-0.114,1.013,0.021,-7.660,1.923,5.737,60.000,62520.000,1.000
-12.289,-9.678,-11.999,-8.725,-4.266,-16.890,-14.402,-11.717,-0.114,1.011,0.023,-8.026,2.197,5.798,60.000,62521.000,1.000
-9.402,-6.339,-9.244,-6.105,-1.611,-13.144,-11.155,-9.339,-0.116,1.009,0.025,-8.575,2.594,5.890,60.000,62522.000,1.000
-8.154,-4.554,-7.538,-4.777,-0.659,-10.771,-8.635,-7.160,-0.114,1.004,0.027,-8.850,2.808,5.798,60.000,62523.000,1.000
-8.170,-4.144,-7.194,-5.002,-0.943,-10.241,-7.350,-5.886,-0.113,1.001,0.031,-9.186,2.991,5.676,60.000,62524.000,1.000
-8.700,-4.301,-7.815,-6.143,-1.566,-10.901,-6.901,-5.326,-0.116,0.996,0.032,-9.460,3.235,5.615,60.000,62525.000,1.000
-9.231,-4.219,-8.460,-6.862,-1.888,-11.513,-6.527,-4.559,-0.118,0.992,0.040,-9.735,3.357,5.524,60.000,62526.000,1.000
-9.503,-3.566,-8.327,-6.156,-1.624,-11.180,-5.616,-2.916,-0.122,0.990,0.040,-9.949,3.357,5.310,60.000,62527.000,1.000
-9.320,-2.500,-7.360,-4.189,-0.619,-9.843,-3.900,-0.633,-0.124,0.986,0.037,-9.949,3.448,5.035,60.000,62528.000,1.000
-8.481,-1.283,-5.977,-1.760,1.275,-7.927,-1.358,1.685,-0.125,0.981,0.041,-10.132,3.418,4.791,60.000,62529.000,1.000
-6.917,0.110,-4.275,0.837,3.998,-5.653,1.842,3.948,-0.126,0.980,0.043,-10.101,3.357,4.486,60.000,62530.000,1.000
-4.861,1.928,-1.893,3.938,7.093,-2.924,5.266,6.553,-0.128,0.978,0.044,-10.162,3.204,3.967,60.000,62531.000,1.000
-2.849,4.145,1.217,7.506,9.875,0.090,8.294,9.571,-0.130,0.977,0.045,-10.223,3.021,3.601,60.000,62532.000,1.000
-1.465,6.191,4.260,10.564,11.910,2.644,10.456,12.351,-0.127,0.983,0.047,-10.132,2.899,3.204,60.000,62533.000,1.000
-0.920,7.478,6.257,12.076,13.343,4.075,11.760,14.210,-0.127,0.986,0.047,-10.101,2.716,2.869,60.000,62534.000,1.000
-0.848,8.146,7.128,12.233,14.687,4.667,12.661,15.323,-0.125,0.992,0.050,-10.010,2.625,2.563,60.000,62535.000,1.000
-0.641,8.887,7.733,12.346,16.221,5.403,13.608,16.500,-0.120,0.998,0.055,-10.040,2.441,2.197,60.000,62536.000,1.000
0.016,10.054,8.776,13.329,17.665,6.832,14.612,18.010,-0.116,1.006,0.056,-10.254,2.472,2.045,60.000,62537.000,1.000
0.975,11.195,9.967,14.609,18.434,8.391,15.246,18.968,-0.114,1.013,0.058,-10.559,2.441,1.801,60.000,62538.000,1.000
1.775,11.462,10.359,14.782,18.076,8.931,15.004,18.148,-0.110,1.018,0.060,-10.864,2.563,1.648,60.000,62539.000,1.000
1.938,10.364,9.430,13.260,16.483,7.821,13.722,15.403,-0.106,1.020,0.061,-11.200,2.777,1.556,60.000,62540.000,1.000
1.300,8.149,7.675,10.919,13.887,5.435,11.657,11.941,-0.104,1.020,0.063,-11.414,3.021,1.526,60.000,62541.000,1.000
0.212,5.531,6.058,8.999,10.766,2.636,9.178,9.028,-0.102,1.018,0.065,-11.627,3.204,1.526,60.000,62542.000,1.000
-0.618,3.161,5.010,7.738,7.698,0.019,6.454,6.737,-0.101,1.017,0.064,-11.780,3.448,1.373,60.000,62543.000,1.000
-0.607,1.348,4.207,6.433,5.097,-2.268,3.435,4.216,-0.100,1.015,0.071,-11.841,3.815,1.343,60.000,62544.000,1.000
0.309,0.235,3.278,4.706,3.084,-4.026,0.159,1.073,-0.102,1.009,0.075,-11.871,4.211,1.373,60.000,62545.000,1.000
1.742,0.067,2.455,3.209,1.672,-4.647,-2.866,-1.839,-0.102,1.009,0.077,-11.810,4.517,1.404,60.000,62546.000,1.000
3.222,0.990,2.216,2.782,0.973,-3.624,-4.810,-3.290,-0.104,1.005,0.079,-11.780,4.822,1.404,60.000,62547.000,1.000
4.367,2.585,2.425,3.181,1.060,-1.372,-5.193,-3.135,-0.104,1.001,0.082,-11.627,5.035,1.343,60.000,62548.000,1.000
4.934,4.015,2.356,3.324,1.787,1.022,-4.225,-2.316,-0.107,0.998,0.081,-11.444,5.249,1.312,60.000,62549.000,1.000
4.984,4.805,1.730,2.810,2.887,2.973,-2.442,-1.466,-0.107,0.994,0.084,-11.261,5.432,1.221,60.000,62550.000,1.000
4.855,5.169,1.199,2.477,4.088,4.793,-0.315,-0.265,-0.108,0.992,0.084,-10.864,5.554,1.160,60.000,62551.000,1.000
4.821,5.432,1.464,3.153,5.087,6.757,1.697,1.582,-0.109,0.989,0.084,-10.376,5.646,1.099,60.000,62552.000,1.000
4.880,5.486,2.287,4.409,5.594,8.366,3.080,3.394,-0.110,0.986,0.087,-10.010,5.676,0.946,60.000,62553.000,1.000
4.921,5.067,2.804,5.088,5.528,8.946,3.570,4.135,-0.110,0.986,0.085,-9.521,5.737,0.793,60.000,62554.000,1.000
5.005,4.428,2.747,4.870,5.125,8.731,3.420,3.733,-0.110,0.983,0.087,-9.033,5.859,0.854,60.000,62555.000,1.000
5.395,4.333,2.895,4.730,4.742,8.811,3.132,3.209,-0.110,0.982,0.086,-8.514,5.890,0.824,60.000,62556.000,1.000
6.326,5.249,4.122,5.678,4.594,9.871,2.899,3.427,-0.110,0.982,0.084,-7.874,5.890,0.702,60.000,62557.000,1.000
7.718,6.739,6.267,7.467,4.649,11.310,2.466,4.077,-0.111,0.983,0.085,-7.233,5.951,0.671,60.000,62558.000,1.000
9.191,7.838,8.270,8.920,4.674,11.843,1.470,4.123,-0.110,0.982,0.087,-6.683,6.073,0.702,60.000,62559.000,1.000
10.429,7.989,9.385,9.413,4.376,10.887,-0.147,3.123,-0.109,0.983,0.085,-6.256,6.073,0.732,60.000,62560.000,1.000
11.428,7.523,9.869,9.546,3.632,9.135,-1.988,1.838,-0.109,0.983,0.082,-5.554,6.165,0.641,60.000,62561.000,1.000
12.174,7.048,10.208,10.025,2.521,7.644,-3.515,1.310,-0.109,0.983,0.079,-4.974,6.256,0.549,60.000,62562.000,1.000
12.147,6.437,9.947,10.282,1.015,6.573,-4.601,1.471,-0.111,0.982,0.078,-4.364,6.287,0.610,60.000,62563.000,1.000
10.508,4.844,7.947,8.914,-1.137,5.252,-5.602,1.210,-0.111,0.983,0.077,-3.906,6.226,0.610,60.000,62564.000,1.000
6.979,1.886,3.914,5.533,-4.030,3.401,-6.798,-0.127,-0.107,0.983,0.078,-3.326,6.195,0.641,60.000,62565.000,1.000
2.413,-1.595,-0.821,1.521,-7.253,1.710,-8.023,-1.941,-0.110,0.983,0.076,-2.594,6.165,0.549,60.000,62566.000,1.000
-1.696,-4.227,-4.364,-1.322,-10.029,1.009,-8.972,-3.326,-0.111,0.981,0.074,-2.136,6.134,0.427,60.000,62567.000,1.000
-4.260,-5.307,-5.839,-2.496,-11.691,1.312,-9.655,-4.315,-0.113,0.982,0.073,-1.556,6.165,0.397,60.000,62568.000,1.000
-5.054,-5.005,-5.591,-2.755,-11.949,2.058,-10.300,-5.616,-0.116,0.982,0.075,-1.099,6.165,0.336,60.000,62569.000,1.000
-4.374,-3.669,-4.106,-2.661,-10.865,3.022,-10.884,-7.276,-0.116,0.983,0.072,-0.519,6.104,0.183,60.000,62570.000,1.000
-2.686,-1.475,-1.448,-1.891,-8.770,4.466,-11.056,-8.264,-0.119,0.983,0.071,-0.061,5.920,0.092,60.000,62571.000,1.000
-0.591,1.231,2.106,-0.102,-6.168,6.416,-10.544,-7.637,-0.121,0.983,0.072,0.458,5.890,-0.031,60.000,62572.000,1.000
1.205,3.624,5.429,2.016,-3.600,8.210,-9.442,-5.702,-0.120,0.984,0.070,0.854,5.676,-0.153,60.000,62573.000,1.000
2.073,4.716,7.042,3.098,-1.575,8.956,-8.155,-3.717,-0.124,0.984,0.069,1.434,5.402,-0.305,60.000,62574.000,1.000
1.733,4.197,6.449,2.599,-0.431,8.478,-7.059,-2.493,-0.125,0.983,0.065,1.862,5.066,-0.488,60.000,62575.000,1.000
0.435,2.868,4.738,1.497,-0.083,7.657,-6.122,-1.592,-0.127,0.985,0.062,2.350,4.944,-0.793,60.000,62576.000,1.000
-1.265,1.932,3.466,1.070,-0.056,7.563,-4.998,-0.193,-0.131,0.987,0.063,2.625,4.730,-0.977,60.000,62577.000,1.000
-3.017,1.812,3.006,1.263,0.050,8.294,-3.579,1.510,-0.132,0.989,0.063,2.899,4.547,-1.068,60.000,62578.000,1.000
-4.816,1.969,2.465,0.925,0.229,9.007,-2.241,2.418,-0.132,0.993,0.059,3.326,4.150,-1.373,60.000,62579.000,1.000
-6.582,1.818,1.150,-0.411,0.243,9.095,-1.395,2.051,-0.133,0.995,0.061,3.662,3.937,-1.556,60.000,62580.000,1.000
-8.035,1.265,-0.649,-1.897,-0.183,8.749,-1.141,1.121,-0.132,0.998,0.058,3.906,3.448,-1.709,60.000,62581.000,1.000
-9.172,0.214,-2.546,-2.792,-1.417,8.129,-1.585,0.276,-0.131,1.002,0.055,4.181,3.143,-1.923,60.000,62582.000,1.000
-10.282,-1.641,-4.730,-3.537,-3.593,6.824,-2.910,-0.807,-0.130,1.005,0.053,4.242,2.869,-2.136,60.000,62583.000,1.000
-11.245,-4.010,-7.105,-4.779,-5.939,4.802,-4.708,-2.467,-0.129,1.009,0.049,4.333,2.502,-2.228,60.000,62584.000,1.000
-11.485,-5.671,-8.601,-6.097,-7.086,3.140,-5.875,-4.007,-0.128,1.013,0.047,4.395,2.167,-2.319,60.000,62585.000,1.000
-10.842,-5.593,-8.119,-6.438,-6.401,3.018,-5.719,-4.372,-0.127,1.016,0.049,4.425,1.923,-2.350,60.000,62586.000,1.000
-10.056,-4.187,-5.941,-5.573,-4.653,4.182,-4.807,-3.586,-0.126,1.016,0.047,4.425,1.556,-2.441,60.000,62587.000,1.000
-10.153,-3.093,-3.789,-4.595,-3.246,4.905,-4.409,-2.979,-0.125,1.017,0.047,4.486,1.343,-2.380,60.000,62588.000,1.000
-11.456,-3.702,-3.383,-4.788,-3.055,3.621,-5.265,-3.836,-0.123,1.019,0.049,4.425,1.068,-2.258,60.000,62589.000,1.000
-13.256,-5.919,-4.946,-6.152,-3.983,0.463,-6.993,-5.972,-0.125,1.017,0.050,4.303,0.916,-2.228,60.000,62590.000,1.000
-14.358,-8.328,-7.077,-7.300,-5.322,-2.914,-8.586,-7.891,-0.125,1.013,0.045,4.333,0.702,-2.197,60.000,62591.000,1.000
-13.879,-9.502,-8.129,-6.930,-6.332,-4.983,-9.314,-8.365,-0.124,1.012,0.046,4.211,0.488,-2.136,60.000,62592.000,1.000
-11.773,-9.141,-7.687,-5.244,-6.632,-5.613,-9.140,-7.592,-0.125,1.010,0.044,4.272,0.397,-2.045,60.000,62593.000,1.000
-8.812,-8.005,-6.593,-3.639,-6.304,-5.766,-8.508,-6.684,-0.125,1.007,0.046,4.364,0.153,-2.075,60.000,62594.000,1.000
-5.966,-6.875,-5.622,-2.988,-5.658,-6.143,-7.829,-6.241,-0.126,1.004,0.045,4.486,-0.122,-2.045,60.000,62595.000,1.000
-3.612,-5.720,-4.466,-2.608,-4.767,-6.364,-7.039,-5.668,-0.129,1.003,0.043,4.669,-0.275,-2.045,60.000,62596.000,1.000
-1.385,-3.984,-2.271,-1.171,-3.325,-5.631,-5.688,-4.020,-0.126,1.000,0.042,4.791,-0.458,-1.984,60.000,62597.000,1.000
1.254,-1.591,0.975,1.610,-1.199,-4.044,-3.629,-1.314,-0.127,1.000,0.039,4.852,-0.610,-2.045,60.000,62598.000,1.000
4.408,0.599,4.041,4.677,1.011,-2.785,-1.500,1.363,-0.125,1.000,0.041,5.066,-1.007,-2.136,60.000,62599.000,1.000
7.669,1.545,5.618,6.952,2.293,-2.825,-0.179,3.171,-0.126,1.000,0.036,5.157,-1.251,-2.289,60.000,62600.000,1.000
10.505,1.030,5.599,8.478,2.160,-3.813,0.192,4.501,-0.128,0.998,0.038,5.219,-1.465,-2.258,60.000,62601.000,1.000
12.746,-0.254,4.958,9.930,1.120,-4.517,0.363,6.262,-0.128,0.996,0.038,5.249,-1.526,-2.258,60.000,62602.000,1.000
14.703,-1.376,4.592,11.409,0.246,-4.079,1.210,8.553,-0.130,0.995,0.036,5.432,-1.740,-2.319,60.000,62603.000,1.000
16.834,-1.701,4.694,12.313,0.343,-2.537,3.017,10.605,-0.129,0.996,0.036,5.524,-2.014,-2.380,60.000,62604.000,1.000
19.377,-0.909,5.219,12.412,1.499,-0.294,5.453,11.960,-0.128,0.995,0.035,5.707,-2.167,-2.441,60.000,62605.000,1.000
22.213,1.047,6.402,12.413,3.249,2.345,7.958,13.079,-0.125,0.996,0.032,5.737,-2.441,-2.502,60.000,62606.000,1.000
24.753,3.624,8.225,12.966,4.894,4.823,9.885,14.355,-0.125,0.998,0.031,5.981,-2.563,-2.441,60.000,62607.000,1.000
25.996,5.545,9.680,13.489,5.736,6.054,10.588,15.078,-0.123,0.997,0.031,5.920,-2.716,-2.411,60.000,62608.000,1.000
25.087,5.589,9.405,12.794,5.460,5.253,9.883,14.238,-0.120,0.997,0.032,5.951,-2.869,-2.350,60.000,62609.000,1.000
22.004,3.677,7.114,10.785,4.349,2.947,8.339,12.076,-0.120,0.995,0.029,6.073,-2.838,-2.319,60.000,62610.000,1.000
17.591,0.913,3.898,8.761,2.957,0.647,6.796,10.088,-0.120,0.996,0.029,5.890,-2.899,-2.197,60.000,62611.000,1.000
12.952,-1.460,1.061,7.846,1.678,-0.577,5.706,9.432,-0.118,0.996,0.030,6.012,-2.899,-2.075,60.000,62612.000,1.000
8.890,-3.006,-1.010,7.672,0.649,-1.000,4.967,9.744,-0.118,0.996,0.028,6.195,-2.838,-2.014,60.000,62613.000,1.000
5.831,-3.917,-2.559,7.036,-0.036,-1.541,4.303,9.744,-0.120,0.997,0.029,6.195,-2.838,-2.014,60.000,62614.000,1.000
3.918,-4.191,-3.410,5.614,-0.160,-2.306,3.752,8.811,-0.120,0.996,0.027,6.134,-2.777,-1.953,60.000,62615.000,1.000
2.934,-3.513,-2.877,4.382,0.411,-2.367,3.646,7.531,-0.120,0.995,0.026,6.042,-2.716,-1.892,60.000,62616.000,1.000
2.218,-1.947,-0.857,4.253,1.411,-1.105,4.093,6.685,-0.121,0.997,0.024,6.104,-2.655,-1.831,60.000,62617.000,1.000
0.863,-0.386,1.428,4.785,2.204,0.722,4.695,6.215,-0.123,0.996,0.024,6.042,-2.594,-1.709,60.000,62618.000,1.000
-1.841,-0.062,2.157,4.600,2.159,1.575,4.856,5.539,-0.122,0.998,0.024,6.042,-2.563,-1.648,60.000,62619.000,1.000
-6.065,-1.573,0.373,2.906,1.008,0.647,4.349,4.639,-0.122,0.999,0.022,5.920,-2.472,-1.526,60.000,62620.000,1.000
-11.406,-4.421,-3.357,0.262,-0.999,-1.433,3.541,4.315,-0.121,1.000,0.022,5.859,-2.380,-1.434,60.000,62621.000,1.000
-17.074,-7.493,-7.664,-2.249,-3.176,-3.335,3.055,5.193,-0.120,1.001,0.022,5.615,-2.228,-1.465,60.000,62622.000,1.000
-22.251,-9.960,-11.578,-4.324,-4.775,-4.297,3.121,6.684,-0.120,1.003,0.022,5.524,-2.136,-1.312,60.000,62623.000,1.000
-26.389,-11.599,-14.837,-6.492,-5.446,-4.448,3.353,7.350,-0.119,1.004,0.021,5.493,-2.136,-1.190,60.000,62624.000,1.000
-29.242,-12.399,-17.192,-8.903,-5.321,-4.042,3.287,6.454,-0.121,1.005,0.020,5.463,-1.801,-1.099,60.000,62625.000,1.000
-30.912,-12.350,-18.115,-10.815,-4.837,-2.995,2.829,4.711,-0.120,1.007,0.022,5.219,-1.740,-1.099,60.000,62626.000,1.000
-31.871,-11.745,-17.482,-11.637,-4.535,-1.417,2.049,3.195,-0.120,1.008,0.018,4.944,-1.556,-0.946,60.000,62627.000,1.000
-32.587,-11.161,-16.040,-11.826,-4.702,0.036,1.005,2.080,-0.118,1.010,0.021,4.822,-1.251,-0.824,60.000,62628.000,1.000
-33.127,-10.947,-14.850,-12.279,-5.133,0.709,-0.093,0.884,-0.117,1.010,0.021,4.517,-1.099,-0.732,60.000,62629.000,1.000
-33.406,-11.038,-14.560,-13.254,-5.524,0.508,-1.005,-0.532,-0.115,1.009,0.020,4.303,-0.824,-0.671,60.000,62630.000,1.000
-33.698,-11.334,-15.297,-14.304,-6.026,-0.262,-1.810,-1.774,-0.116,1.010,0.020,4.028,-0.549,-0.519,60.000,62631.000,1.000
-34.469,-11.970,-16.923,-15.050,-7.021,-1.393,-2.755,-2.537,-0.113,1.012,0.020,3.784,-0.366,-0.397,60.000,62632.000,1.000
-35.716,-13.119,-19.169,-15.649,-8.437,-2.970,-3.789,-3.006,-0.115,1.011,0.021,3.632,-0.183,-0.183,60.000,62633.000,1.000
-36.820,-14.606,-21.492,-16.418,-9.643,-5.069,-4.577,-3.592,-0.115,1.014,0.022,3.326,0.122,-0.122,60.000,62634.000,1.000
-37.085,-15.748,-22.870,-17.093,-10.009,-7.274,-4.930,-4.339,-0.113,1.015,0.021,2.899,0.366,-0.031,60.000,62635.000,1.000
-36.282,-15.752,-22.135,-16.819,-9.384,-8.727,-4.990,-4.802,-0.113,1.011,0.022,2.686,0.671,0.122,60.000,62636.000,1.000
-34.656,-14.393,-18.919,-15.085,-8.018,-8.841,-4.948,-4.570,-0.111,1.011,0.019,2.319,1.038,0.244,60.000,62637.000,1.000
-32.547,-12.163,-14.176,-12.466,-6.131,-7.799,-4.646,-3.741,-0.113,1.011,0.021,2.136,1.282,0.427,60.000,62638.000,1.000
-30.176,-9.796,-9.543,-10.158,-3.790,-6.236,-3.638,-2.681,-0.112,1.010,0.020,1.892,1.587,0.336,60.000,62639.000,1.000
-27.739,-7.753,-6.129,-8.804,-1.226,-4.551,-1.669,-1.436,-0.113,1.009,0.019,1.648,1.831,0.427,60.000,62640.000,1.000
-25.488,-6.133,-3.988,-8.000,0.984,-2.728,1.015,0.354,-0.112,1.008,0.020,1.312,2.075,0.366,60.000,62641.000,1.000
-23.638,-4.961,-2.706,-7.100,2.212,-0.831,3.827,2.799,-0.115,1.005,0.019,1.099,2.380,0.458,60.000,62642.000,1.000
-22.218,-4.446,-2.213,-6.178,2.236,0.583,6.197,5.250,-0.115,1.004,0.022,1.068,2.594,0.366,60.000,62643.000,1.000
-21.086,-4.857,-2.763,-5.837,1.302,0.777,7.771,6.735,-0.116,1.005,0.023,1.007,2.777,0.397,60.000,62644.000,1.000
-20.106,-6.163,-4.206,-6.220,-0.160,-0.406,8.418,6.910,-0.116,1.006,0.023,0.824,2.899,0.305,60.000,62645.000,1.000
-19.234,-7.849,-5.668,-6.608,-1.717,-2.239,8.288,6.393,-0.117,1.003,0.023,0.610,3.021,0.183,60.000,62646.000,1.000
-18.410,-9.151,-6.174,-6.206,-2.811,-3.611,7.908,6.173,-0.119,1.003,0.023,0.397,3.174,0.214,60.000,62647.000,1.000
-17.487,-9.524,-5.502,-5.063,-2.820,-3.881,7.917,6.662,-0.118,1.003,0.026,0.183,3.326,0.214,60.000,62648.000,1.000
-16.363,-8.931,-4.249,-3.967,-1.563,-3.185,8.389,7.325,-0.117,1.002,0.025,0.153,3.540,0.153,60.000,62649.000,1.000
-15.148,-7.666,-3.061,-3.483,0.372,-1.919,8.735,7.354,-0.120,1.002,0.026,-0.031,3.693,0.153,60.000,62650.000,1.000
-14.180,-6.087,-2.140,-3.464,1.966,-0.253,8.390,6.538,-0.120,0.999,0.028,-0.122,3.693,0.092,60.000,62651.000,1.000
-13.892,-4.770,-1.665,-3.692,2.336,1.390,7.164,5.097,-0.121,0.998,0.029,-0.366,3.632,0.031,60.000,62652.000,1.000
-14.530,-4.623,-2.227,-4.527,1.111,1.865,5.043,3.017,-0.123,0.996,0.029,-0.427,3.723,-0.122,60.000,62653.000,1.000
-15.847,-6.282,-4.333,-6.407,-1.429,0.173,2.170,0.148,-0.122,0.995,0.029,-0.397,3.662,-0.153,60.000,62654.000,1.000
-17.105,-9.302,-7.491,-8.872,-4.500,-3.216,-1.053,-3.144,-0.124,0.994,0.027,-0.397,3.571,-0.244,60.000,62655.000,1.000
-17.378,-12.161,-10.122,-10.542,-7.153,-6.411,-4.041,-5.900,-0.123,0.993,0.029,-0.366,3.510,-0.427,60.000,62656.000,1.000
-16.073,-13.274,-10.738,-10.363,-8.616,-7.634,-6.273,-7.408,-0.123,0.994,0.034,-0.427,3.326,-0.488,60.000,62657.000,1.000
-13.358,-12.092,-9.214,-8.795,-8.592,-6.633,-7.537,-7.996,-0.124,0.993,0.035,-0.458,3.235,-0.671,60.000,62658.000,1.000
-10.056,-9.234,-6.684,-7.354,-7.326,-4.492,-7.944,-8.574,-0.124,0.991,0.033,-0.366,3.143,-0.763,60.000,62659.000,1.000
-7.168,-5.711,-4.270,-6.985,-5.415,-2.266,-7.711,-9.405,-0.125,0.990,0.037,-0.275,3.052,-0.824,60.000,62660.000,1.000
-5.396,-2.220,-2.266,-7.244,-3.460,-0.121,-6.968,-9.766,-0.125,0.990,0.038,-0.275,2.991,-0.885,60.000,62661.000,1.000
-4.859,0.874,-0.551,-7.187,-1.815,2.246,-5.796,-9.003,-0.124,0.988,0.035,-0.153,2.869,-0.916,60.000,62662.000,1.000
-5.142,3.142,0.579,-6.694,-0.635,4.699,-4.421,-7.590,-0.123,0.987,0.035,-0.092,2.716,-0.916,60.000,62663.000,1.000
-5.705,4.050,0.378,-6.512,-0.129,6.460,-3.336,-6.785,-0.124,0.986,0.035,-0.092,2.472,-0.916,60.000,62664.000,1.000
-6.197,3.469,-1.407,-7.080,-0.557,6.876,-3.078,-7.303,-0.124,0.988,0.037,-0.183,2.228,-0.946,60.000,62665.000,1.000
-6.400,2.062,-3.887,-7.836,-1.924,6.140,-3.806,-8.659,-0.123,0.989,0.036,-0.153,2.106,-1.038,60.000,62666.000,1.000
-6.053,0.856,-5.691,-7.978,-3.781,4.964,-5.182,-9.918,-0.126,0.988,0.039,-0.061,1.892,-1.007,60.000,62667.000,1.000
-4.892,0.472,-6.098,-7.504,-5.381,3.782,-6.588,-10.698,-0.124,0.989,0.035,0.183,1.831,-1.007,60.000,62668.000,1.000
-2.771,1.011,-5.194,-6.982,-6.015,2.714,-7.320,-11.082,-0.127,0.988,0.037,0.061,1.678,-1.068,60.000,62669.000,1.000
0.143,2.455,-3.271,-6.594,-5.440,2.056,-6.878,-10.905,-0.126,0.993,0.040,0.122,1.526,-1.007,60.000,62670.000,1.000
3.122,4.609,-0.734,-6.084,-4.236,2.126,-5.467,-9.813,-0.126,0.994,0.041,0.061,1.373,-0.916,60.000,62671.000,1.000
4.890,6.621,1.369,-5.723,-3.635,2.568,-4.127,-8.192,-0.128,0.995,0.040,0.000,1.160,-0.824,60.000,62672.000,1.000
4.234,7.114,1.398,-6.664,-4.654,2.317,-3.979,-7.373,-0.126,0.996,0.039,-0.061,0.916,-0.946,60.000,62673.000,1.000
0.953,5.262,-1.661,-9.742,-7.243,0.651,-5.218,-8.391,-0.127,0.996,0.039,-0.153,0.641,-0.916,60.000,62674.000,1.000
-3.778,1.684,-7.003,-14.092,-10.320,-1.883,-6.967,-10.732,-0.128,0.996,0.040,-0.092,0.519,-0.824,60.000,62675.000,1.000
-8.125,-1.952,-12.315,-17.502,-12.611,-3.828,-8.082,-12.748,-0.129,0.995,0.039,0.000,0.275,-0.732,60.000,62676.000,1.000
-10.676,-4.190,-15.441,-18.295,-13.371,-4.123,-7.981,-13.249,-0.130,0.994,0.040,0.000,0.031,-0.580,60.000,62677.000,1.000
-10.945,-4.614,-15.707,-16.622,-12.475,-2.968,-6.858,-12.461,-0.129,0.992,0.040,-0.031,-0.183,-0.580,60.000,62678.000,1.000
-9.138,-3.550,-13.632,-13.758,-10.132,-1.331,-5.273,-11.360,-0.130,0.995,0.042,-0.183,-0.397,-0.366,60.000,62679.000,1.000
-5.789,-1.369,-9.820,-10.511,-6.766,0.212,-3.672,-10.371,-0.130,0.996,0.042,-0.031,-0.519,-0.305,60.000,62680.000,1.000
-1.705,1.524,-4.721,-6.864,-3.208,1.653,-2.403,-9.187,-0.131,0.996,0.043,-0.092,-0.702,-0.305,60.000,62681.000,1.000
2.086,4.279,0.696,-3.025,-0.675,2.722,-1.959,-7.847,-0.131,0.996,0.041,0.000,-0.977,-0.305,60.000,62682.000,1.000
4.727,5.783,4.764,-0.122,-0.139,2.607,-2.802,-7.321,-0.130,0.994,0.042,-0.061,-1.160,-0.397,60.000,62683.000,1.000
5.892,5.502,6.102,0.625,-1.598,0.862,-4.831,-8.547,-0.127,0.993,0.044,-0.031,-1.312,-0.275,60.000,62684.000,1.000
5.813,4.123,4.812,-0.675,-3.973,-1.655,-7.138,-11.059,-0.127,0.993,0.045,0.061,-1.495,-0.275,60.000,62685.000,1.000
5.039,3.160,2.505,-2.433,-5.802,-3.148,-8.460,-13.069,-0.129,0.994,0.046,0.000,-1.740,-0.153,60.000,62686.000,1.000
4.114,3.749,0.966,-3.051,-6.129,-2.394,-8.011,-13.081,-0.129,0.993,0.045,0.000,-1.801,-0.183,60.000,62687.000,1.000
3.350,5.714,0.745,-2.385,-4.952,0.133,-5.995,-11.272,-0.127,0.992,0.042,0.305,-1.801,-0.092,60.000,62688.000,1.000
2.811,7.838,1.115,-1.521,-3.040,2.687,-3.428,-9.120,-0.125,0.993,0.043,0.427,-1.862,-0.031,60.000,62689.000,1.000
2.536,9.048,1.323,-1.234,-1.332,3.833,-1.388,-7.756,-0.124,0.994,0.043,0.549,-1.892,-0.031,60.000,62690.000,1.000
2.681,9.205,1.471,-1.145,-0.396,3.460,-0.390,-7.054,-0.125,0.994,0.041,0.671,-2.045,0.000,60.000,62691.000,1.000
3.414,8.769,2.030,-0.543,-0.272,2.292,-0.341,-6.367,-0.125,0.996,0.041,0.793,-2.167,-0.061,60.000,62692.000,1.000
4.845,8.136,3.012,0.566,-0.561,0.903,-0.850,-5.585,-0.123,0.997,0.043,0.854,-2.075,-0.061,60.000,62693.000,1.000
7.072,7.501,4.062,1.719,-0.672,-0.471,-1.465,-5.045,-0.123,0.997,0.042,0.885,-2.045,-0.061,60.000,62694.000,1.000
10.121,7.110,5.175,3.023,-0.198,-1.491,-1.788,-4.688,-0.123,0.997,0.044,0.763,-2.075,-0.092,60.000,62695.000,1.000
13.767,7.302,6.905,5.271,0.861,-1.613,-1.591,-3.862,-0.121,0.998,0.041,0.641,-2.075,-0.183,60.000,62696.000,1.000
17.495,8.176,9.664,8.786,2.245,-0.634,-0.914,-2.181,-0.122,0.997,0.038,0.671,-2.045,-0.122,60.000,62697.000,1.000
20.702,9.392,13.002,12.512,3.697,0.922,-0.033,-0.274,-0.119,0.998,0.039,0.702,-2.014,-0.061,60.000,62698.000,1.000
22.937,10.467,15.791,14.697,5.019,2.266,0.693,0.725,-0.117,0.998,0.041,0.702,-1.892,-0.214,60.000,62699.000,1.000
23.967,11.271,17.161,14.499,5.955,3.145,0.991,0.350,-0.118,0.998,0.039,0.610,-1.770,-0.275,60.000,62700.000,1.000
23.715,12.060,17.065,12.605,6.182,3.928,0.747,-0.852,-0.118,1.000,0.040,0.610,-1.678,-0.214,60.000,62701.000,1.000
22.286,12.975,15.916,10.229,5.483,4.839,-0.052,-2.147,-0.117,1.000,0.039,0.671,-1.556,-0.305,60.000,62702.000,1.000
20.155,13.755,14.041,7.962,4.043,5.515,-1.269,-3.351,-0.117,1.000,0.039,0.671,-1.343,-0.366,60.000,62703.000,1.000
18.231,14.108,11.798,5.914,2.558,5.563,-2.472,-4.500,-0.116,0.999,0.042,0.519,-1.251,-0.427,60.000,62704.000,1.000
17.468,14.178,9.976,4.571,1.847,5.286,-3.009,-5.148,-0.120,1.000,0.041,0.366,-1.160,-0.458,60.000,62705.000,1.000
18.405,14.562,9.738,5.008,2.462,5.685,-2.189,-4.290,-0.120,1.000,0.042,0.244,-0.977,-0.580,60.000,62706.000,1.000
21.089,15.990,11.988,8.056,4.780,7.774,0.604,-1.096,-0.119,1.001,0.043,0.122,-0.793,-0.610,60.000,62707.000,1.000
25.121,18.789,16.506,13.278,9.027,11.790,5.634,4.260,-0.120,1.000,0.041,0.183,-0.671,-0.702,60.000,62708.000,1.000
29.560,22.417,21.728,18.991,14.753,16.961,12.343,10.522,-0.119,0.999,0.042,0.183,-0.488,-0.641,60.000,62709.000,1.000
32.902,25.447,25.546,23.312,20.382,21.871,19.127,16.035,-0.119,0.998,0.041,0.275,-0.336,-0.671,60.000,62710.000,1.000
33.470,26.043,26.374,24.984,23.596,24.836,23.707,19.336,-0.117,0.998,0.037,0.153,-0.092,-0.671,60.000,62711.000,1.000
30.312,22.865,23.670,23.376,22.649,24.286,24.163,19.387,-0.116,0.994,0.037,0.153,0.061,-0.763,60.000,62712.000,1.000
24.023,15.992,17.905,18.297,17.561,19.453,20.044,15.782,-0.116,0.994,0.038,0.031,0.275,-0.641,60.000,62713.000,1.000
16.652,7.127,10.310,10.300,10.007,11.028,12.608,9.102,-0.119,0.995,0.038,0.000,0.427,-0.824,60.000,62714.000,1.000
10.606,-1.111,2.652,1.167,2.204,1.229,4.141,1.162,-0.120,0.997,0.038,0.000,0.519,-0.671,60.000,62715.000,1.000
7.433,-6.312,-3.122,-6.403,-3.988,-6.958,-2.994,-5.467,-0.119,0.995,0.038,0.000,0.763,-0.763,60.000,62716.000,1.000
7.307,-7.362,-5.743,-10.282,-7.443,-11.329,-7.271,-8.885,-0.122,0.995,0.040,0.092,0.885,-0.732,60.000,62717.000,1.000
9.326,-4.940,-5.445,-10.271,-7.901,-11.694,-8.474,-9.038,-0.121,0.995,0.037,0.153,1.068,-0.732,60.000,62718.000,1.000
12.304,-0.742,-3.493,-7.630,-5.754,-9.330,-7.195,-7.104,-0.123,0.994,0.037,0.275,1.160,-0.793,60.000,62719.000,1.000
15.518,3.965,-0.727,-3.392,-1.606,-5.267,-3.956,-3.803,-0.122,0.996,0.037,0.336,1.251,-0.732,60.000,62720.000,1.000
18.705,8.733,2.871,2.176,3.726,0.227,0.812,0.933,-0.124,0.995,0.040,0.214,1.373,-0.702,60.000,62721.000,1.000
21.531,13.047,7.019,8.413,8.920,6.452,6.084,6.587,-0.122,0.994,0.037,0.244,1.495,-0.671,60.000,62722.000,1.000
23.447,15.843,10.350,13.499,12.446,11.558,10.213,11.315,-0.123,0.994,0.038,0.153,1.556,-0.671,60.000,62723.000,1.000
24.129,16.202,11.348,15.587,13.411,13.643,11.912,13.222,-0.123,0.993,0.042,0.122,1.678,-0.580,60.000,62724.000,1.000
23.890,14.342,9.977,14.660,12.160,12.482,11.241,12.245,-0.124,0.992,0.037,0.244,1.831,-0.549,60.000,62725.000,1.000
23.527,11.650,7.984,12.797,10.066,9.797,9.555,10.345,-0.125,0.993,0.037,0.214,1.892,-0.519,60.000,62726.000,1.000
23.610,9.483,7.196,12.172,8.537,7.600,8.320,9.581,-0.126,0.994,0.036,0.305,1.831,-0.427,60.000,62727.000,1.000
23.903,8.027,7.695,12.952,8.080,6.501,8.046,10.213,-0.126,0.996,0.035,0.244,1.831,-0.458,60.000,62728.000,1.000
23.665,6.614,8.112,13.597,8.333,5.948,8.462,11.018,-0.125,0.996,0.035,0.214,1.862,-0.397,60.000,62729.000,1.000
22.485,4.929,7.515,12.973,8.784,5.665,9.351,11.115,-0.125,0.998,0.034,0.275,1.923,-0.397,60.000,62730.000,1.000
20.597,3.395,6.316,11.473,9.164,6.051,10.725,10.780,-0.127,1.001,0.036,0.183,2.014,-0.366,60.000,62731.000,1.000
18.500,2.418,5.296,9.991,9.304,7.169,12.311,10.467,-0.126,1.003,0.037,0.183,2.014,-0.275,60.000,62732.000,1.000
16.712,1.850,4.611,8.701,9.125,8.160,13.436,9.833,-0.128,1.002,0.038,0.183,2.075,-0.305,60.000,62733.000,1.000
15.891,1.480,4.208,7.460,8.945,8.209,13.744,8.383,-0.128,1.004,0.038,-0.031,2.045,-0.214,60.000,62734.000,1.000
16.629,1.613,4.560,6.849,9.401,7.645,13.676,6.681,-0.128,1.004,0.037,-0.122,1.923,-0.153,60.000,62735.000,1.000
18.750,2.680,6.243,7.899,10.725,7.449,13.865,6.088,-0.130,1.003,0.036,-0.153,1.892,-0.153,60.000,62736.000,1.000
21.101,4.456,8.923,10.674,12.338,7.890,14.310,7.187,-0.130,1.003,0.036,-0.183,1.831,-0.122,60.000,62737.000,1.000
22.317,6.009,11.221,13.691,13.362,8.158,14.448,8.991,-0.130,0.999,0.037,-0.275,1.801,-0.031,60.000,62738.000,1.000
21.718,6.423,11.776,15.089,13.323,7.297,13.792,9.928,-0.129,0.998,0.035,-0.183,1.831,-0.031,60.000,62739.000,1.000
19.558,5.559,10.443,14.324,12.340,5.325,12.366,9.472,-0.129,0.998,0.036,-0.122,1.801,-0.031,60.000,62740.000,1.000
16.636,4.090,8.394,12.443,10.840,3.299,10.653,8.477,-0.128,0.998,0.038,-0.092,1.770,0.061,60.000,62741.000,1.000
13.744,2.751,6.954,10.690,9.242,2.258,9.198,7.945,-0.126,0.999,0.037,-0.061,1.587,0.183,60.000,62742.000,1.000
11.410,1.689,6.471,9.273,7.913,2.299,8.326,7.933,-0.127,0.999,0.037,0.031,1.526,0.275,60.000,62743.000,1.000
9.986,0.733,6.478,7.737,7.210,2.797,8.133,7.879,-0.126,0.999,0.037,0.183,1.373,0.336,60.000,62744.000,1.000
9.793,0.091,6.759,6.219,7.371,3.394,8.559,7.646,-0.125,0.999,0.037,0.153,1.465,0.305,60.000,62745.000,1.000
10.929,0.313,7.642,5.624,8.222,4.336,9.312,7.650,-0.125,0.997,0.040,0.275,1.465,0.488,60.000,62746.000,1.000
12.905,1.459,9.120,6.362,9.065,5.664,9.721,7.854,-0.125,0.996,0.037,0.244,1.373,0.397,60.000,62747.000,1.000
14.789,2.823,10.381,7.527,9.214,6.677,9.086,7.353,-0.126,0.996,0.038,0.427,1.373,0.458,60.000,62748.000,1.000
15.877,3.757,10.647,7.854,8.709,6.729,7.466,5.493,-0.127,0.998,0.035,0.458,1.312,0.397,60.000,62749.000,1.000
15.998,4.357,10.113,7.147,8.230,6.146,5.797,3.016,-0.128,0.999,0.036,0.610,1.251,0.305,60.000,62750.000,1.000
15.252,5.115,9.670,6.332,8.275,5.888,5.001,1.530,-0.129,1.000,0.038,0.610,1.160,0.244,60.000,62751.000,1.000
13.938,6.215,9.877,6.273,8.765,6.460,5.256,1.908,-0.127,0.998,0.038,0.580,1.190,0.214,60.000,62752.000,1.000
12.710,7.370,10.457,6.886,9.400,7.416,6.119,3.505,-0.126,0.999,0.037,0.671,1.007,0.153,60.000,62753.000,1.000
12.325,8.166,10.745,7.435,9.981,7.883,6.996,4.910,-0.125,0.999,0.035,0.671,0.977,0.153,60.000,62754.000,1.000
13.113,8.504,10.547,7.588,10.356,7.476,7.449,5.336,-0.124,1.000,0.034,0.732,0.824,0.183,60.000,62755.000,1.000
14.789,8.724,10.461,7.895,10.379,6.605,7.391,5.213,-0.124,1.001,0.032,0.824,0.732,0.244,60.000,62756.000,1.000
16.721,9.223,11.183,9.031,10.077,5.900,7.090,5.394,-0.124,1.001,0.035,0.854,0.793,0.275,60.000,62757.000,1.000
18.295,9.979,12.565,10.761,9.739,5.493,6.906,6.041,-0.122,1.002,0.034,1.007,0.732,0.183,60.000,62758.000,1.000
19.156,10.631,13.676,12.111,9.731,5.071,7.055,6.632,-0.121,1.003,0.037,0.793,0.732,0.305,60.000,62759.000,1.000
19.201,10.947,13.765,12.522,10.149,4.519,7.529,6.847,-0.117,1.002,0.038,0.824,0.732,0.366,60.000,62760.000,1.000
18.352,10.904,12.789,12.285,10.558,4.110,8.036,6.839,-0.117,1.000,0.038,0.854,0.793,0.427,60.000,62761.000,1.000
16.449,10.307,10.974,11.734,10.196,3.919,8.044,6.624,-0.118,1.001,0.037,0.916,0.732,0.549,60.000,62762.000,1.000
13.459,8.596,8.249,10.497,8.510,3.307,6.993,5.618,-0.118,1.001,0.040,0.916,0.763,0.580,60.000,62763.000,1.000
9.700,5.273,4.477,7.953,5.498,1.378,4.561,3.107,-0.117,0.998,0.040,0.885,0.885,0.671,60.000,62764.000,1.000
5.886,0.698,0.262,4.445,1.735,-1.840,1.028,-0.690,-0.118,0.998,0.040,0.916,0.916,0.671,60.000,62765.000,1.000
2.853,-3.798,-3.033,1.492,-1.869,-5.047,-2.630,-4.299,-0.116,0.997,0.039,1.099,0.885,0.763,60.000,62766.000,1.000
1.049,-6.922,-4.487,0.334,-4.560,-6.918,-5.330,-6.199,-0.115,0.996,0.040,1.129,0.946,0.763,60.000,62767.000,1.000
0.386,-8.296,-4.448,0.690,-5.965,-7.290,-6.504,-6.116,-0.113,0.995,0.039,1.221,0.977,0.854,60.000,62768.000,1.000
0.559,-8.231,-3.822,1.418,-5.934,-6.815,-6.167,-4.810,-0.115,0.993,0.037,1.312,1.038,0.977,60.000,62769.000,1.000
1.298,-7.087,-2.908,2.064,-4.542,-5.925,-4.689,-2.901,-0.116,0.993,0.037,1.526,1.068,1.038,60.000,62770.000,1.000
2.458,-5.072,-1.191,3.308,-2.233,-4.494,-2.603,-0.347,-0.114,0.991,0.038,1.709,1.160,1.099,60.000,62771.000,1.000
3.981,-2.553,1.740,5.791,0.298,-2.462,-0.507,2.806,-0.117,0.990,0.039,1.953,1.251,1.129,60.000,62772.000,1.000
5.697,-0.273,5.291,8.889,2.403,-0.431,1.046,5.637,-0.117,0.990,0.037,2.106,1.251,1.160,60.000,62773.000,1.000
7.274,1.114,8.212,11.187,3.762,0.774,1.799,6.959,-0.116,0.992,0.036,2.228,1.282,1.190,60.000,62774.000,1.000
8.445,1.695,9.838,12.079,4.444,1.089,1.986,6.674,-0.115,0.992,0.038,2.258,1.343,1.251,60.000,62775.000,1.000
9.243,2.242,10.715,12.422,4.805,1.404,2.196,6.046,-0.115,0.993,0.037,2.441,1.404,1.129,60.000,62776.000,1.000
9.855,3.300,11.747,13.360,5.222,2.499,2.893,6.365,-0.114,0.995,0.035,2.502,1.373,1.160,60.000,62777.000,1.000
10.226,4.358,12.879,14.743,5.699,3.895,3.877,7.486,-0.112,0.997,0.036,2.655,1.495,1.038,60.000,62778.000,1.000
10.005,4.215,13.068,15.202,5.747,4.172,4.290,7.980,-0.112,0.997,0.035,2.686,1.526,1.038,60.000,62779.000,1.000
8.969,2.210,11.621,13.826,4.794,2.459,3.351,6.763,-0.112,0.999,0.033,2.808,1.495,1.007,60.000,62780.000,1.000
7.317,-1.162,9.015,11.129,2.611,-0.811,0.975,4.148,-0.112,1.000,0.036,2.808,1.556,1.038,60.000,62781.000,1.000
5.402,-4.965,6.094,8.051,-0.702,-4.764,-2.437,1.038,-0.114,1.001,0.037,2.686,1.678,1.007,60.000,62782.000,1.000
3.347,-8.744,2.908,4.602,-4.897,-9.052,-6.474,-2.300,-0.112,1.002,0.033,2.655,1.678,1.007,60.000,62783.000,1.000
1.105,-12.417,-1.053,0.184,-9.530,-13.516,-10.674,-6.058,-0.111,1.001,0.033,2.808,1.740,0.977,60.000,62784.000,1.000
-1.200,-15.532,-5.589,-4.913,-13.802,-17.299,-14.237,-9.760,-0.112,1.003,0.035,2.838,1.709,1.007,60.000,62785.000,1.000
-3.174,-17.166,-9.378,-9.092,-16.720,-18.972,-16.202,-12.084,-0.112,1.002,0.033,2.686,1.709,1.007,60.000,62786.000,1.000
-4.448,-16.728,-11.102,-10.881,-17.604,-17.779,-16.079,-12.114,-0.112,1.005,0.033,2.716,1.892,0.916,60.000,62787.000,1.000
-5.011,-14.612,-10.734,-10.446,-16.485,-14.529,-14.261,-10.466,-0.110,1.003,0.031,2.686,1.831,0.977,60.000,62788.000,1.000
-5.195,-11.844,-9.383,-9.270,-14.023,-10.941,-11.733,-8.726,-0.110,1.002,0.032,2.502,1.862,0.977,60.000,62789.000,1.000
-5.344,-9.173,-7.949,-8.440,-11.065,-8.128,-9.352,-7.824,-0.110,1.001,0.029,2.441,1.953,0.885,60.000,62790.000,1.000
-5.562,-6.668,-6.349,-7.714,-8.250,-6.035,-7.478,-7.329,-0.111,1.001,0.030,2.380,2.014,0.854,60.000,62791.000,1.000
-5.714,-4.193,-4.182,-6.434,-5.938,-4.334,-6.185,-6.439,-0.108,1.001,0.028,2.502,2.045,0.916,60.000,62792.000,1.000
-5.619,-2.044,-1.808,-4.868,-4.322,-3.355,-5.580,-5.255,-0.108,1.000,0.027,2.380,2.045,0.916,60.000,62793.000,1.000
-5.277,-0.888,-0.342,-4.142,-3.571,-3.751,-5.783,-4.678,-0.109,1.000,0.032,2.411,2.045,0.946,60.000,62794.000,1.000
-4.916,-1.130,-0.550,-4.895,-3.815,-5.495,-6.671,-5.164,-0.107,1.002,0.030,2.380,2.136,0.885,60.000,62795.000,1.000
-4.765,-2.466,-2.024,-6.465,-4.954,-7.598,-7.779,-6.003,-0.107,1.000,0.030,2.258,2.228,0.824,60.000,62796.000,1.000
-4.806,-4.103,-3.642,-7.616,-6.431,-8.886,-8.437,-6.037,-0.109,1.002,0.031,2.228,2.228,0.702,60.000,62797.000,1.000
-4.850,-5.358,-4.690,-7.861,-7.375,-8.882,-8.070,-4.852,-0.110,1.002,0.030,2.136,2.197,0.610,60.000,62798.000,1.000
-4.945,-6.112,-5.381,-7.809,-7.278,-7.965,-6.597,-3.066,-0.109,1.001,0.030,2.045,2.228,0.549,60.000,62799.000,1.000
-5.660,-6.820,-6.395,-8.310,-6.652,-6.964,-4.780,-1.616,-0.111,1.002,0.032,1.892,2.167,0.519,60.000,62800.000,1.000
-7.750,-8.087,-8.157,-9.594,-6.782,-6.678,-3.953,-1.088,-0.109,1.003,0.033,1.831,2.136,0.488,60.000,62801.000,1.000
-11.365,-10.176,-10.599,-11.415,-8.597,-7.535,-5.097,-1.748,-0.109,1.003,0.028,1.740,2.014,0.458,60.000,62802.000,1.000
-15.640,-12.833,-13.400,-13.703,-11.833,-9.495,-8.119,-3.845,-0.110,1.002,0.026,1.617,2.014,0.397,60.000,62803.000,1.000
-19.208,-15.516,-16.195,-16.545,-15.366,-12.173,-12.099,-7.374,-0.108,1.002,0.025,1.465,1.984,0.488,60.000,62804.000,1.000
-21.081,-17.583,-18.411,-19.390,-18.079,-14.840,-15.942,-11.451,-0.108,1.000,0.025,1.373,1.953,0.366,60.000,62805.000,1.000
-21.031,-18.347,-19.175,-20.810,-19.267,-16.394,-18.643,-14.290,-0.106,0.998,0.028,1.434,1.923,0.458,60.000,62806.000,1.000
-19.464,-17.410,-17.949,-19.661,-18.669,-15.981,-19.506,-14.455,-0.108,0.997,0.030,1.373,1.923,0.397,60.000,62807.000,1.000
-17.235,-15.228,-15.375,-16.507,-16.621,-13.933,-18.640,-12.324,-0.108,0.994,0.030,1.312,1.953,0.366,60.000,62808.000,1.000
-15.431,-13.052,-13.069,-13.390,-14.126,-11.652,-17.019,-9.905,-0.108,0.994,0.027,1.312,1.831,0.397,60.000,62809.000,1.000
-14.962,-11.979,-12.291,-12.012,-12.400,-10.324,-15.768,-8.922,-0.106,0.992,0.031,1.312,1.831,0.397,60.000,62810.000,1.000
-16.069,-12.067,-12.963,-12.371,-12.074,-9.939,-15.284,-9.297,-0.109,0.993,0.030,1.282,1.892,0.275,60.000,62811.000,1.000
-18.137,-12.429,-14.035,-13.222,-12.683,-9.620,-14.992,-9.620,-0.111,0.994,0.027,1.404,1.770,0.275,60.000,62812.000,1.000
-20.080,-12.092,-14.625,-13.539,-12.976,-8.643,-13.922,-8.747,-0.112,0.994,0.030,1.373,1.801,0.214,60.000,62813.000,1.000
-21.065,-10.690,-14.551,-13.195,-11.909,-6.958,-11.535,-6.630,-0.112,0.994,0.033,1.343,1.709,0.183,60.000,62814.000,1.000
-21.012,-8.532,-13.989,-12.455,-9.504,-4.948,-8.178,-3.843,-0.115,0.997,0.029,1.282,1.495,0.122,60.000,62815.000,1.000
-20.437,-6.273,-12.994,-11.338,-6.790,-3.082,-4.907,-0.914,-0.117,0.997,0.031,1.282,1.404,-0.092,60.000,62816.000,1.000
-19.899,-4.631,-11.644,-9.874,-4.967,-1.905,-2.873,1.651,-0.117,0.999,0.030,1.282,1.343,-0.244,60.000,62817.000,1.000
-19.744,-4.289,-10.560,-8.784,-4.681,-2.062,-2.729,3.031,-0.116,0.996,0.031,1.282,1.190,-0.305,60.000,62818.000,1.000
-20.128,-5.587,-10.728,-9.185,-5.867,-3.788,-4.300,2.458,-0.116,0.998,0.033,1.282,0.977,-0.275,60.000,62819.000,1.000
-21.008,-8.062,-12.522,-11.329,-7.988,-6.352,-6.731,0.126,-0.114,0.998,0.032,1.129,0.916,-0.427,60.000,62820.000,1.000
-22.178,-10.594,-15.228,-14.114,-10.393,-8.388,-9.041,-2.724,-0.115,0.998,0.032,1.007,0.793,-0.397,60.000,62821.000,1.000
-23.364,-12.201,-17.695,-16.050,-12.460,-8.935,-10.568,-4.860,-0.113,0.999,0.030,0.885,0.702,-0.397,60.000,62822.000,1.000
-24.264,-12.663,-19.258,-16.498,-13.560,-8.111,-11.035,-5.996,-0.112,1.001,0.030,0.793,0.641,-0.519,60.000,62823.000,1.000
-24.571,-12.342,-19.830,-15.748,-13.203,-6.703,-10.404,-6.441,-0.113,1.002,0.032,0.854,0.519,-0.580,60.000,62824.000,1.000
-24.057,-11.534,-19.340,-14.183,-11.390,-5.198,-8.836,-6.164,-0.111,1.003,0.034,0.641,0.458,-0.580,60.000,62825.000,1.000
-22.836,-10.299,-17.667,-11.947,-8.881,-3.548,-6.862,-4.819,-0.111,1.001,0.028,0.580,0.519,-0.641,60.000,62826.000,1.000
-21.481,-8.951,-15.300,-9.537,-6.936,-1.897,-5.381,-2.689,-0.111,1.000,0.031,0.580,0.397,-0.610,60.000,62827.000,1.000
-20.662,-8.303,-13.572,-8.118,-6.542,-1.065,-5.203,-1.035,-0.111,1.001,0.031,0.427,0.427,-0.671,60.000,62828.000,1.000
-20.616,-9.082,-13.732,-8.659,-7.812,-1.959,-6.531,-1.104,-0.111,1.004,0.033,0.366,0.366,-0.702,60.000,62829.000,1.000
-21.003,-11.099,-15.682,-10.723,-10.020,-4.496,-8.827,-2.838,-0.110,1.005,0.033,0.244,0.366,-0.732,60.000,62830.000,1.000
-21.196,-13.143,-17.829,-12.522,-12.058,-7.357,-11.060,-4.793,-0.112,1.004,0.032,0.092,0.397,-0.732,60.000,62831.000,1.000
-20.663,-13.789,-18.366,-12.469,-12.879,-8.951,-12.189,-5.476,-0.107,1.004,0.035,-0.061,0.305,-0.641,60.000,62832.000,1.000
-19.253,-12.449,-16.731,-10.621,-11.915,-8.673,-11.736,-4.708,-0.110,1.003,0.032,-0.275,0.336,-0.641,60.000,62833.000,1.000
-17.329,-9.773,-13.873,-8.494,-9.477,-7.229,-10.075,-3.562,-0.110,1.001,0.035,-0.366,0.183,-0.671,60.000,62834.000,1.000
-15.707,-7.116,-11.289,-7.541,-6.759,-5.794,-8.178,-3.112,-0.109,1.000,0.035,-0.519,0.214,-0.763,60.000,62835.000,1.000
-15.234,-5.648,-9.965,-8.018,-5.185,-5.053,-6.961,-3.519,-0.111,1.002,0.033,-0.641,0.244,-0.702,60.000,62836.000,1.000
-16.157,-5.777,-10.119,-9.269,-5.405,-5.012,-6.664,-4.270,-0.112,1.000,0.035,-0.702,0.244,-0.763,60.000,62837.000,1.000
-17.751,-7.039,-11.430,-10.608,-6.732,-5.287,-6.648,-4.784,-0.110,0.998,0.036,-0.763,0.214,-0.854,60.000,62838.000,1.000
-18.644,-8.338,-13.111,-11.514,-7.617,-5.334,-5.859,-4.541,-0.111,0.998,0.036,-0.824,0.275,-0.916,60.000,62839.000,1.000
-17.735,-8.547,-13.971,-11.326,-6.927,-4.645,-3.756,-3.035,-0.110,0.997,0.036,-0.977,0.244,-0.977,60.000,62840.000,1.000
-15.047,-7.261,-13.049,-9.520,-4.869,-3.180,-0.905,-0.156,-0.111,0.997,0.037,-1.038,0.275,-1.099,60.000,62841.000,1.000
-11.740,-5.172,-10.478,-6.524,-2.700,-1.708,1.362,3.316,-0.111,0.997,0.037,-0.977,0.275,-1.160,60.000,62842.000,1.000
-9.204,-3.579,-7.518,-3.816,-1.535,-1.459,1.949,5.937,-0.109,0.999,0.038,-1.007,0.214,-1.221,60.000,62843.000,1.000
-8.105,-3.340,-5.424,-2.739,-1.477,-3.102,0.798,6.681,-0.112,1.000,0.035,-1.038,0.183,-1.404,60.000,62844.000,1.000
-8.176,-4.210,-4.300,-3.198,-1.833,-5.998,-1.196,5.879,-0.113,1.000,0.035,-1.038,0.305,-1.495,60.000,62845.000,1.000
-8.680,-5.161,-3.236,-3.798,-1.950,-8.629,-3.001,4.863,-0.110,0.999,0.035,-1.007,0.366,-1.495,60.000,62846.000,1.000
-8.869,-5.258,-1.500,-3.338,-1.628,-9.811,-4.102,4.596,-0.110,0.998,0.037,-1.007,0.305,-1.709,60.000,62847.000,1.000
-8.177,-4.181,0.670,-1.925,-0.842,-9.409,-4.385,4.865,-0.112,0.997,0.040,-0.916,0.397,-1.740,60.000,62848.000,1.000
-6.417,-2.160,2.453,-0.550,0.464,-8.002,-3.800,4.846,-0.111,0.998,0.040,-1.068,0.397,-1.831,60.000,62849.000,1.000
-4.042,0.311,3.372,0.161,2.131,-6.147,-2.451,4.148,-0.112,0.997,0.037,-1.068,0.427,-1.831,60.000,62850.000,1.000
-1.959,2.743,3.726,0.553,3.680,-4.031,-0.754,3.132,-0.113,0.998,0.038,-1.190,0.458,-1.831,60.000,62851.000,1.000
-0.835,4.806,4.141,1.264,4.725,-1.693,0.756,2.275,-0.116,0.997,0.037,-1.129,0.519,-1.892,60.000,62852.000,1.000
-0.734,6.229,4.733,2.107,5.247,0.499,1.677,1.374,-0.115,0.996,0.040,-1.129,0.549,-1.892,60.000,62853.000,1.000
-1.506,6.636,4.849,1.968,5.254,1.722,1.688,-0.411,-0.116,0.995,0.042,-1.129,0.610,-2.075,60.000,62854.000,1.000
-3.167,5.750,3.810,0.061,4.468,1.304,0.541,-3.538,-0.115,0.997,0.042,-1.038,0.641,-1.984,60.000,62855.000,1.000
-5.588,3.886,1.833,-2.946,2.727,-0.413,-1.521,-7.192,-0.116,0.995,0.042,-0.946,0.580,-1.892,60.000,62856.000,1.000
-8.088,1.922,-0.199,-5.508,0.509,-2.184,-3.539,-9.776,-0.117,0.994,0.042,-0.854,0.610,-1.862,60.000,62857.000,1.000
-9.748,0.571,-1.828,-6.761,-1.306,-3.025,-4.451,-10.391,-0.119,0.994,0.043,-0.702,0.641,-1.831,60.000,62858.000,1.000
-10.066,-0.072,-3.325,-6.982,-2.114,-2.893,-3.885,-9.443,-0.121,0.994,0.042,-0.519,0.580,-1.801,60.000,62859.000,1.000
-9.150,-0.115,-4.749,-6.583,-1.866,-2.089,-2.242,-7.753,-0.122,0.993,0.043,-0.549,0.580,-1.740,60.000,62860.000,1.000
-7.394,0.630,-5.285,-5.283,-0.817,-0.582,-0.210,-5.630,-0.122,0.994,0.045,-0.397,0.488,-1.801,60.000,62861.000,1.000
-5.129,2.368,-3.943,-2.649,0.816,1.706,1.704,-3.090,-0.123,0.994,0.043,-0.244,0.458,-1.770,60.000,62862.000,1.000
-2.559,4.720,-0.781,0.884,2.902,4.249,3.347,-0.492,-0.123,0.992,0.043,-0.153,0.427,-1.801,60.000,62863.000,1.000
0.210,6.848,3.040,4.175,5.285,6.086,4.825,1.626,-0.123,0.993,0.047,0.061,0.366,-1.831,60.000,62864.000,1.000
3.165,8.252,6.447,6.635,7.729,6.760,6.326,3.312,-0.123,0.996,0.044,0.214,0.275,-1.678,60.000,62865.000,1.000
6.236,9.136,9.215,8.741,9.928,6.701,7.935,5.250,-0.123,0.996,0.044,0.305,0.336,-1.587,60.000,62866.000,1.000
9.060,9.864,11.396,10.992,11.507,6.482,9.438,7.718,-0.122,0.994,0.046,0.427,0.366,-1.617,60.000,62867.000,1.000
11.090,10.379,12.600,12.898,12.140,5.962,10.277,9.825,-0.121,0.996,0.044,0.458,0.275,-1.495,60.000,62868.000,1.000
12.043,10.376,12.418,13.555,11.769,4.563,9.879,10.231,-0.120,0.998,0.042,0.610,0.275,-1.434,60.000,62869.000,1.000
12.206,9.936,11.385,13.020,10.700,2.309,8.165,8.591,-0.123,0.998,0.043,0.824,0.305,-1.434,60.000,62870.000,1.000
12.349,9.796,11.031,12.584,9.565,0.273,5.839,6.048,-0.122,0.998,0.043,0.854,0.275,-1.373,60.000,62871.000,1.000
13.270,10.825,12.648,13.477,9.179,-0.206,4.135,4.205,-0.119,0.998,0.042,1.007,0.305,-1.312,60.000,62872.000,1.000
15.105,13.125,15.968,15.424,10.099,1.212,3.973,3.682,-0.120,0.998,0.044,1.068,0.244,-1.129,60.000,62873.000,1.000
16.994,15.736,19.253,16.817,12.071,3.533,5.165,3.754,-0.121,0.999,0.041,1.068,0.366,-1.068,60.000,62874.000,1.000
17.662,17.403,20.790,16.377,14.044,5.396,6.569,3.388,-0.119,0.998,0.042,1.221,0.397,-0.977,60.000,62875.000,1.000
16.385,17.470,20.090,14.269,14.824,6.158,6.998,2.266,-0.120,0.999,0.040,1.312,0.366,-0.824,60.000,62876.000,1.000
13.314,15.927,17.562,11.413,13.731,5.868,5.899,0.541,-0.121,1.000,0.040,1.465,0.397,-0.763,60.000,62877.000,1.000
9.152,13.004,13.631,8.246,10.941,4.713,3.485,-1.851,-0.121,1.002,0.039,1.495,0.458,-0.732,60.000,62878.000,1.000
4.833,9.195,8.737,4.775,7.466,3.068,0.677,-4.893,-0.122,1.002,0.039,1.495,0.458,-0.702,60.000,62879.000,1.000
1.288,5.486,3.943,1.551,4.646,1.800,-1.239,-7.692,-0.121,1.003,0.042,1.434,0.519,-0.763,60.000,62880.000,1.000
-0.849,3.007,0.823,-0.218,3.358,1.812,-1.388,-8.729,-0.121,1.000,0.041,1.617,0.671,-0.732,60.000,62881.000,1.000
-1.481,2.241,0.371,0.213,3.681,3.157,0.155,-7.162,-0.120,1.000,0.041,1.678,0.641,-0.702,60.000,62882.000,1.000
-1.086,2.660,2.057,2.152,5.151,4.919,2.625,-3.683,-0.119,0.999,0.043,1.770,0.580,-0.671,60.000,62883.000,1.000
-0.460,3.174,4.152,3.967,7.064,6.035,5.170,0.036,-0.120,0.998,0.038,1.862,0.671,-0.702,60.000,62884.000,1.000
-0.211,2.966,5.085,4.561,8.565,6.104,7.127,2.680,-0.120,0.996,0.039,1.892,0.702,-0.793,60.000,62885.000,1.000
-0.404,1.986,4.528,4.152,8.897,5.420,8.078,4.030,-0.119,0.998,0.041,1.953,0.702,-0.763,60.000,62886.000,1.000
-0.699,0.755,3.232,3.585,7.921,4.390,7.950,4.520,-0.120,0.998,0.041,2.075,0.671,-0.671,60.000,62887.000,1.000
-0.648,-0.082,2.138,3.306,6.400,3.178,7.118,4.479,-0.121,0.996,0.041,2.075,0.702,-0.763,60.000,62888.000,1.000
0.125,0.051,1.924,3.312,5.613,2.004,6.305,4.113,-0.118,0.998,0.043,2.167,0.916,-0.763,60.000,62889.000,1.000
1.722,1.524,3.075,3.770,6.434,1.404,6.192,3.893,-0.120,0.996,0.041,2.228,0.916,-0.763,60.000,62890.000,1.000
3.787,4.222,5.811,5.152,8.702,1.899,6.982,4.443,-0.119,0.998,0.044,2.411,1.038,-0.763,60.000,62891.000,1.000
5.668,7.445,9.716,7.545,11.550,3.477,8.356,5.886,-0.118,0.998,0.041,2.380,0.916,-0.763,60.000,62892.000,1.000
6.831,10.197,13.626,10.088,14.148,5.410,9.798,7.491,-0.119,1.000,0.039,2.289,0.916,-0.763,60.000,62893.000,1.000
7.132,11.782,16.307,11.633,16.121,6.757,11.022,8.364,-0.120,1.000,0.039,2.289,1.038,-0.732,60.000,62894.000,1.000
6.837,12.334,17.522,12.055,17.538,7.270,12.221,8.581,-0.120,0.998,0.036,2.228,1.160,-0.702,60.000,62895.000,1.000
6.304,12.563,18.064,12.346,18.545,7.546,13.758,9.131,-0.119,1.000,0.034,2.197,1.221,-0.702,60.000,62896.000,1.000
5.564,12.805,18.460,13.165,18.945,8.103,15.529,10.527,-0.118,0.999,0.034,2.319,1.282,-0.732,60.000,62897.000,1.000
4.448,12.678,18.152,13.856,18.349,8.708,16.913,12.015,-0.117,1.000,0.036,2.228,1.404,-0.641,60.000,62898.000,1.000
3.158,11.880,16.394,13.320,16.794,8.957,17.473,12.506,-0.119,0.999,0.036,2.197,1.434,-0.610,60.000,62899.000,1.000
2.332,10.966,13.585,11.536,14.930,9.147,17.501,11.959,-0.120,1.000,0.038,2.228,1.434,-0.549,60.000,62900.000,1.000
2.415,10.999,11.209,9.733,13.546,10.173,17.739,11.442,-0.118,0.998,0.036,2.106,1.465,-0.610,60.000,62901.000,1.000
3.219,12.572,10.559,9.097,13.196,12.650,18.917,12.012,-0.120,0.997,0.038,2.136,1.556,-0.549,60.000,62902.000,1.000
4.274,15.388,11.793,9.720,14.259,16.419,21.574,13.929,-0.120,0.997,0.037,2.075,1.648,-0.641,60.000,62903.000,1.000
5.212,18.503,14.022,10.782,16.745,20.677,25.706,16.730,-0.122,0.997,0.037,2.045,1.648,-0.671,60.000,62904.000,1.000
5.378,20.506,15.772,11.186,19.557,24.087,30.077,19.387,-0.122,0.997,0.035,2.136,1.617,-0.549,60.000,62905.000,1.000
3.458,19.695,15.347,9.854,20.348,24.833,32.185,20.346,-0.121,0.997,0.035,2.136,1.801,-0.549,60.000,62906.000,1.000
-1.748,14.770,11.322,5.908,16.879,21.248,29.609,17.967,-0.120,0.995,0.033,2.014,1.709,-0.397,60.000,62907.000,1.000
-10.036,5.782,3.271,-0.923,8.781,12.825,21.700,11.431,-0.120,0.996,0.034,2.136,1.709,-0.397,60.000,62908.000,1.000
-19.459,-5.427,-7.620,-9.746,-1.981,0.950,10.139,1.566,-0.119,0.999,0.031,2.045,1.801,-0.519,60.000,62909.000,1.000
-27.212,-15.686,-18.490,-18.234,-12.168,-11.182,-1.882,-9.002,-0.120,0.999,0.034,2.014,1.831,-0.488,60.000,62910.000,1.000
-31.040,-21.881,-25.877,-23.470,-18.926,-19.844,-11.197,-16.962,-0.120,0.999,0.032,2.014,1.740,-0.366,60.000,62911.000,1.000
-30.306,-22.697,-27.689,-23.895,-21.048,-22.888,-16.065,-20.284,-0.120,1.000,0.034,2.167,1.862,-0.275,60.000,62912.000,1.000
-26.087,-19.288,-24.488,-20.492,-19.173,-20.897,-16.618,-19.345,-0.121,0.999,0.035,2.106,1.831,-0.397,60.000,62913.000,1.000
-20.308,-14.214,-18.806,-15.754,-15.039,-16.284,-14.266,-16.094,-0.120,0.999,0.034,2.106,1.862,-0.275,60.000,62914.000,1.000
-14.685,-9.707,-13.250,-11.545,-10.558,-11.414,-10.757,-12.260,-0.118,0.998,0.033,2.014,1.923,-0.336,60.000,62915.000,1.000
-10.177,-6.715,-9.116,-8.152,-7.118,-7.442,-7.418,-8.478,-0.118,0.998,0.033,1.953,1.953,-0.214,60.000,62916.000,1.000
-6.956,-5.118,-6.493,-5.159,-5.196,-4.512,-4.828,-4.826,-0.119,0.999,0.032,1.862,1.831,-0.153,60.000,62917.000,1.000
-4.687,-4.492,-5.176,-2.643,-4.437,-2.631,-3.023,-1.706,-0.119,0.997,0.031,1.862,1.953,-0.183,60.000,62918.000,1.000
-2.832,-4.449,-4.988,-1.066,-4.112,-1.929,-1.887,0.244,-0.120,0.996,0.033,1.862,1.953,-0.214,60.000,62919.000,1.000
-0.872,-4.411,-5.326,-0.209,-3.597,-2.103,-1.270,1.010,-0.119,0.994,0.032,1.740,2.075,-0.153,60.000,62920.000,1.000
1.460,-3.646,-5.083,1.016,-2.637,-2.231,-0.983,1.397,-0.120,0.997,0.032,1.862,1.923,-0.214,60.000,62921.000,1.000
4.060,-1.793,-3.457,3.342,-1.284,-1.505,-0.827,2.096,-0.119,0.999,0.029,1.892,2.075,-0.153,60.000,62922.000,1.000
6.518,0.751,-0.695,6.106,0.287,0.026,-0.648,2.839,-0.119,1.002,0.031,1.770,2.075,-0.092,60.000,62923.000,1.000
8.211,2.941,2.018,7.689,1.710,1.469,-0.514,2.708,-0.117,1.003,0.032,1.587,2.106,-0.061,60.000,62924.000,1.000
8.469,3.693,3.500,6.981,2.290,1.828,-0.849,1.151,-0.119,1.003,0.030,1.495,2.045,-0.031,60.000,62925.000,1.000
7.076,2.674,3.478,4.298,1.370,0.799,-2.180,-1.482,-0.118,1.005,0.031,1.343,2.045,-0.061,60.000,62926.000,1.000
4.698,0.545,2.579,0.865,-1.001,-1.173,-4.612,-4.382,-0.119,1.005,0.030,1.251,2.075,-0.061,60.000,62927.000,1.000
2.630,-1.603,1.557,-2.292,-3.840,-3.456,-7.548,-6.938,-0.119,1.006,0.031,1.160,2.106,-0.031,60.000,62928.000,1.000
1.985,-2.959,0.769,-4.687,-5.796,-5.509,-9.939,-8.804,-0.118,1.003,0.029,0.946,2.045,0.031,60.000,62929.000,1.000
2.983,-3.273,0.279,-5.995,-6.156,-6.732,-10.977,-9.620,-0.120,1.000,0.029,0.977,2.045,0.000,60.000,62930.000,1.000
4.925,-2.732,0.101,-5.919,-5.310,-6.514,-10.617,-9.068,-0.118,0.999,0.030,0.885,1.984,-0.061,60.000,62931.000,1.000
6.831,-1.717,0.171,-4.619,-4.196,-4.719,-9.450,-7.302,-0.119,0.996,0.030,0.946,1.953,-0.122,60.000,62932.000,1.000
8.085,-0.634,0.173,-3.003,-3.423,-1.982,-8.137,-5.132,-0.119,0.994,0.033,0.946,1.923,-0.092,60.000,62933.000,1.000
8.589,0.288,-0.226,-2.124,-2.961,0.758,-6.942,-3.450,-0.119,0.994,0.030,1.068,1.953,-0.092,60.000,62934.000,1.000
8.558,1.132,-0.807,-2.139,-2.505,2.890,-5.807,-2.415,-0.116,0.995,0.028,1.129,1.923,0.000,60.000,62935.000,1.000
8.224,2.076,-0.793,-2.232,-1.991,4.122,-4.840,-1.510,-0.114,0.992,0.029,1.190,1.892,0.000,60.000,62936.000,1.000
7.693,3.025,0.276,-1.720,-1.654,4.240,-4.384,-0.400,-0.113,0.990,0.031,1.434,1.984,0.061,60.000,62937.000,1.000
7.039,3.563,1.804,-0.966,-1.671,3.186,-4.551,0.542,-0.113,0.989,0.029,1.526,1.892,0.061,60.000,62938.000,1.000
6.459,3.387,2.661,-0.839,-1.900,1.343,-4.985,0.770,-0.112,0.988,0.027,1.526,2.014,0.031,60.000,62939.000,1.000
6.290,2.757,2.460,-1.369,-1.962,-0.323,-5.085,0.521,-0.115,0.987,0.028,1.587,1.984,0.061,60.000,62940.000,1.000
6.783,2.365,1.956,-1.457,-1.529,-0.647,-4.358,0.836,-0.116,0.989,0.031,1.770,2.045,-0.031,60.000,62941.000,1.000
7.798,2.621,1.994,-0.206,-0.581,0.790,-2.721,2.379,-0.117,0.990,0.031,1.801,2.075,-0.122,60.000,62942.000,1.000
8.731,3.193,2.409,1.843,0.576,3.101,-0.618,4.495,-0.119,0.993,0.031,2.014,2.014,-0.153,60.000,62943.000,1.000
8.879,3.389,2.342,3.255,1.522,4.768,1.191,5.744,-0.120,0.992,0.032,2.014,1.984,-0.275,60.000,62944.000,1.000
7.958,2.933,1.524,3.287,1.928,4.933,2.013,5.298,-0.121,0.993,0.035,1.984,1.862,-0.336,60.000,62945.000,1.000
6.332,2.239,0.771,2.518,1.667,3.894,1.575,3.620,-0.121,0.996,0.030,2.045,1.831,-0.336,60.000,62946.000,1.000
4.759,1.839,1.001,1.842,0.880,2.463,0.177,1.749,-0.119,0.999,0.029,2.075,1.740,-0.519,60.000,62947.000,1.000
3.866,1.655,2.055,1.302,-0.087,1.073,-1.479,0.199,-0.120,1.000,0.030,2.045,1.740,-0.519,60.000,62948.000,1.000
3.761,1.022,2.784,0.283,-0.957,-0.340,-2.708,-1.184,-0.120,1.000,0.030,1.923,1.648,-0.641,60.000,62949.000,1.000
4.002,-0.556,2.211,-1.381,-1.816,-1.783,-3.176,-2.503,-0.120,1.002,0.031,1.892,1.556,-0.763,60.000,62950.000,1.000
3.965,-2.809,0.382,-2.932,-2.964,-2.849,-2.911,-3.372,-0.120,1.005,0.031,1.740,1.495,-0.763,60.000,62951.000,1.000
3.381,-4.886,-1.908,-3.480,-4.414,-3.085,-2.144,-3.381,-0.120,1.007,0.033,1.740,1.343,-0.732,60.000,62952.000,1.000
2.493,-6.133,-4.005,-3.068,-5.754,-2.708,-1.300,-2.839,-0.120,1.009,0.032,1.465,1.251,-0.732,60.000,62953.000,1.000
1.761,-6.536,-5.702,-2.559,-6.526,-2.608,-0.929,-2.601,-0.118,1.007,0.033,1.251,1.190,-0.671,60.000,62954.000,1.000
1.542,-6.383,-6.733,-2.424,-6.594,-3.389,-1.304,-2.956,-0.119,1.006,0.031,1.068,1.190,-0.702,60.000,62955.000,1.000
2.008,-5.764,-6.488,-2.086,-6.079,-4.615,-2.076,-3.076,-0.117,1.004,0.034,0.916,1.099,-0.641,60.000,62956.000,1.000
3.129,-4.642,-4.642,-0.756,-5.109,-5.304,-2.512,-1.998,-0.117,1.003,0.035,0.824,1.160,-0.580,60.000,62957.000,1.000
4.529,-3.387,-1.936,1.293,-3.855,-5.093,-2.177,-0.021,-0.117,1.002,0.032,0.641,1.129,-0.580,60.000,62958.000,1.000
5.449,-2.828,0.104,2.789,-2.697,-4.515,-1.284,1.423,-0.115,1.001,0.031,0.458,1.129,-0.549,60.000,62959.000,1.000
5.240,-3.454,0.575,2.968,-2.034,-4.038,-0.273,1.449,-0.118,1.003,0.033,0.397,1.129,-0.488,60.000,62960.000,1.000
3.993,-4.754,0.039,2.492,-1.901,-3.373,0.730,0.765,-0.119,1.003,0.030,0.183,1.129,-0.488,60.000,62961.000,1.000
2.404,-5.780,-0.480,2.342,-2.047,-2.152,1.808,0.612,-0.118,1.003,0.035,0.183,1.129,-0.397,60.000,62962.000,1.000
1.072,-6.192,-0.992,2.279,-2.314,-0.809,2.904,1.132,-0.119,1.001,0.038,0.122,1.068,-0.305,60.000,62963.000,1.000
0.201,-6.292,-2.336,1.231,-2.661,-0.176,3.901,1.470,-0.119,0.998,0.037,0.000,1.099,-0.244,60.000,62964.000,1.000
-0.127,-6.227,-4.633,-0.966,-2.939,-0.444,4.812,1.211,-0.119,0.997,0.033,-0.183,1.007,-0.214,60.000,62965.000,1.000
0.143,-5.749,-6.767,-3.143,-3.010,-1.045,5.548,0.823,-0.119,0.998,0.033,-0.214,0.916,-0.092,60.000,62966.000,1.000
0.872,-4.796,-7.596,-4.253,-2.969,-1.473,5.720,0.658,-0.119,0.997,0.034,-0.153,0.916,-0.061,60.000,62967.000,1.000
1.783,-3.826,-7.122,-4.539,-2.936,-1.761,5.017,0.265,-0.117,0.997,0.031,-0.244,0.946,-0.092,60.000,62968.000,1.000
2.758,-3.361,-6.186,-4.896,-2.767,-2.095,3.707,-0.962,-0.119,0.996,0.032,-0.244,0.854,-0.061,60.000,62969.000,1.000
4.000,-3.271,-5.215,-5.332,-2.086,-2.115,2.639,-2.655,-0.120,0.994,0.032,-0.305,0.885,-0.092,60.000,62970.000,1.000
5.935,-2.716,-3.623,-4.553,-0.496,-0.895,2.784,-3.372,-0.119,0.994,0.031,-0.031,0.793,-0.092,60.000,62971.000,1.000
8.822,-1.028,-0.679,-1.439,2.072,2.005,4.543,-1.959,-0.121,0.995,0.033,-0.092,0.702,-0.214,60.000,62972.000,1.000
12.315,1.361,3.222,3.269,5.004,5.530,7.270,1.046,-0.120,0.994,0.032,0.031,0.732,-0.214,60.000,62973.000,1.000
15.569,3.261,6.645,7.316,7.190,7.765,9.631,3.764,-0.121,0.993,0.029,0.122,0.641,-0.214,60.000,62974.000,1.000
17.888,4.007,8.544,9.041,7.774,7.728,10.608,4.800,-0.120,0.995,0.032,0.214,0.671,-0.214,60.000,62975.000,1.000
19.155,4.040,9.174,8.687,6.761,6.246,10.191,4.390,-0.119,0.997,0.031,0.244,0.549,-0.305,60.000,62976.000,1.000
19.700,4.163,9.410,7.539,4.933,4.920,9.106,3.638,-0.120,0.999,0.034,0.214,0.488,-0.275,60.000,62977.000,1.000
19.901,4.482,9.442,6.266,3.150,4.438,7.930,3.018,-0.119,1.000,0.034,0.122,0.610,-0.244,60.000,62978.000,1.000
20.038,4.394,8.624,4.592,1.749,4.286,6.682,2.082,-0.116,1.000,0.032,0.183,0.549,-0.153,60.000,62979.000,1.000
20.347,3.566,6.597,2.405,0.591,3.941,5.259,0.574,-0.116,0.999,0.032,0.275,0.580,-0.122,60.000,62980.000,1.000
20.865,2.373,3.971,0.402,-0.607,3.516,3.769,-0.899,-0.115,1.001,0.032,0.244,0.671,-0.031,60.000,62981.000,1.000
21.253,1.303,1.663,-0.670,-2.049,3.122,2.274,-1.642,-0.116,1.001,0.032,0.183,0.702,-0.122,60.000,62982.000,1.000
21.053,0.482,0.036,-0.868,-3.611,2.446,0.713,-1.783,-0.115,0.999,0.029,0.214,0.671,-0.092,60.000,62983.000,1.000
20.128,-0.106,-1.047,-0.754,-4.818,1.203,-0.852,-2.006,-0.113,0.999,0.031,0.366,0.732,0.031,60.000,62984.000,1.000
18.835,-0.251,-1.501,-0.387,-5.262,-0.396,-2.234,-2.599,-0.115,0.997,0.032,0.366,0.793,0.122,60.000,62985.000,1.000
17.874,0.388,-0.800,0.916,-5.020,-1.824,-3.324,-3.118,-0.114,0.997,0.036,0.244,0.946,0.214,60.000,62986.000,1.000
17.851,1.760,1.221,3.524,-4.653,-2.872,-4.207,-3.196,-0.113,0.999,0.032,0.244,1.068,0.214,60.000,62987.000,1.000
18.735,3.155,3.577,6.410,-4.852,-3.978,-5.108,-3.374,-0.113,0.999,0.034,0.183,1.068,0.153,60.000,62988.000,1.000
19.677,3.640,4.601,7.624,-6.045,-5.728,-6.210,-4.714,-0.113,0.998,0.039,0.275,1.038,0.214,60.000,62989.000,1.000
19.449,2.738,3.320,6.017,-8.246,-8.052,-7.493,-7.557,-0.115,0.999,0.037,0.336,0.916,0.153,60.000,62990.000,1.000
17.245,0.672,0.240,2.259,-11.068,-10.155,-8.715,-10.941,-0.116,0.998,0.039,0.214,1.007,0.092,60.000,62991.000,1.000
13.094,-2.035,-3.362,-2.034,-13.900,-11.368,-9.570,-13.525,-0.116,1.001,0.038,0.305,1.068,0.061,60.000,62992.000,1.000
7.587,-5.110,-6.758,-5.912,-16.206,-11.866,-9.931,-14.925,-0.115,1.000,0.038,0.244,1.007,0.000,60.000,62993.000,1.000
1.434,-8.414,-9.969,-9.366,-17.665,-12.253,-9.842,-15.723,-0.117,1.001,0.036,0.275,1.038,-0.061,60.000,62994.000,1.000
-4.649,-11.301,-12.721,-12.144,-18.026,-12.539,-9.306,-16.222,-0.117,1.002,0.037,0.366,1.099,0.061,60.000,62995.000,1.000
-9.847,-12.578,-13.931,-13.090,-17.021,-11.918,-8.226,-15.775,-0.115,1.000,0.036,0.244,1.129,-0.031,60.000,62996.000,1.000
-13.434,-11.457,-12.696,-11.221,-14.564,-9.684,-6.532,-13.670,-0.116,0.998,0.036,0.244,1.099,-0.031,60.000,62997.000,1.000
-15.181,-8.419,-9.472,-7.139,-10.942,-6.099,-4.281,-10.292,-0.115,0.999,0.035,0.244,1.129,-0.092,60.000,62998.000,1.000
-15.533,-4.955,-5.909,-2.828,-6.895,-2.289,-1.754,-6.976,-0.114,0.998,0.034,0.244,1.190,-0.061,60.000,62999.000,1.000
-15.420,-2.555,-3.604,-0.145,-3.607,0.536,0.337,-4.937,-0.114,0.998,0.034,0.305,1.312,0.031,60.000,63000.000,1.000
-15.816,-1.934,-3.191,0.231,-2.337,1.736,1.074,-4.528,-0.113,1.000,0.035,0.366,1.221,0.031,60.000,63001.000,1.000
-17.229,-2.978,-4.484,-1.466,-3.640,1.330,0.035,-5.427,-0.110,0.998,0.035,0.427,1.312,0.061,60.000,63002.000,1.000
-19.497,-5.115,-7.101,-4.882,-6.942,-0.347,-2.338,-7.264,-0.109,0.996,0.037,0.427,1.312,0.031,60.000,63003.000,1.000
-21.985,-7.573,-10.568,-9.579,-10.887,-2.788,-5.033,-9.734,-0.110,0.997,0.034,0.427,1.373,0.122,60.000,63004.000,1.000
-23.993,-9.469,-13.938,-14.417,-14.104,-5.173,-7.075,-12.108,-0.110,0.996,0.034,0.549,1.404,0.244,60.000,63005.000,1.000
-25.121,-10.078,-15.923,-17.658,-15.794,-6.584,-8.017,-13.290,-0.111,0.994,0.035,0.610,1.434,0.244,60.000,63006.000,1.000
-25.356,-9.223,-15.764,-18.177,-15.809,-6.647,-8.017,-12.740,-0.114,0.995,0.035,0.763,1.465,0.214,60.000,63007.000,1.000
-24.940,-7.423,-13.904,-16.438,-14.408,-5.835,-7.456,-11.071,-0.113,0.993,0.033,0.793,1.465,0.244,60.000,63008.000,1.000
-24.259,-5.560,-11.671,-14.052,-12.145,-5.000,-6.605,-9.480,-0.114,0.994,0.034,0.763,1.526,0.122,60.000,63009.000,1.000
-23.804,-4.342,-10.283,-12.377,-9.920,-4.659,-5.682,-8.712,-0.115,0.995,0.036,0.854,1.465,0.031,60.000,63010.000,1.000
-24.052,-4.027,-10.165,-11.649,-8.747,-4.724,-5.021,-8.708,-0.115,0.996,0.038,0.946,1.434,-0.031,60.000,63011.000,1.000
-25.196,-4.537,-11.106,-11.401,-9.118,-4.835,-4.987,-9.127,-0.117,0.999,0.036,1.007,1.404,-0.031,60.000,63012.000,1.000
-26.955,-5.721,-12.813,-11.398,-10.575,-4.838,-5.706,-9.870,-0.119,0.998,0.034,1.160,1.282,-0.183,60.000,63013.000,1.000
-28.698,-7.388,-14.984,-11.768,-11.969,-4.730,-6.812,-10.811,-0.119,0.998,0.035,1.160,1.190,-0.275,60.000,63014.000,1.000
-29.720,-9.074,-16.837,-12.288,-12.204,-4.187,-7.474,-11.170,-0.119,0.999,0.034,1.099,1.007,-0.397,60.000,63015.000,1.000
-29.423,-9.997,-17.055,-12.095,-10.853,-2.585,-6.855,-9.701,-0.120,1.000,0.036,1.129,0.885,-0.519,60.000,63016.000,1.000
-27.559,-9.545,-14.775,-10.608,-8.280,0.189,-4.760,-5.944,-0.117,0.998,0.036,1.160,0.763,-0.549,60.000,63017.000,1.000
-24.576,-7.929,-10.653,-8.545,-5.389,3.061,-1.905,-1.147,-0.117,0.998,0.034,1.221,0.732,-0.610,60.000,63018.000,1.000
-21.652,-6.178,-6.614,-7.459,-3.213,4.290,0.497,2.487,-0.115,0.999,0.032,1.129,0.641,-0.641,60.000,63019.000,1.000
-20.045,-5.236,-4.252,-8.050,-2.424,2.944,1.557,3.693,-0.114,1.000,0.037,1.068,0.702,-0.671,60.000,63020.000,1.000
-20.226,-5.098,-3.555,-9.274,-2.899,-0.180,1.269,3.108,-0.114,1.000,0.038,1.129,0.763,-0.671,60.000,63021.000,1.000
-21.711,-5.095,-3.489,-9.590,-3.871,-3.379,0.259,2.198,-0.113,1.000,0.032,1.251,0.641,-0.763,60.000,63022.000,1.000
-23.740,-4.949,-3.602,-8.850,-4.684,-5.697,-0.906,1.546,-0.112,1.001,0.033,1.343,0.580,-0.641,60.000,63023.000,1.000
-25.789,-5.045,-4.350,-8.262,-5.248,-7.314,-1.992,0.725,-0.113,0.999,0.033,1.221,0.549,-0.671,60.000,63024.000,1.000
-27.407,-5.624,-5.871,-8.543,-5.772,-8.467,-2.828,-0.325,-0.111,1.002,0.033,1.312,0.580,-0.519,60.000,63025.000,1.000
-28.090,-6.319,-7.325,-8.999,-6.388,-8.804,-3.174,-0.690,-0.111,1.003,0.034,1.251,0.671,-0.488,60.000,63026.000,1.000
-27.591,-6.726,-7.845,-8.729,-7.057,-8.049,-2.943,0.456,-0.112,1.001,0.033,1.160,0.671,-0.366,60.000,63027.000,1.000
-26.156,-6.996,-7.582,-8.003,-7.592,-6.692,-2.282,2.760,-0.112,0.999,0.036,1.068,0.641,-0.305,60.000,63028.000,1.000
-24.278,-7.464,-7.289,-7.760,-7.599,-5.471,-1.314,5.175,-0.115,0.999,0.037,1.099,0.610,-0.244,60.000,63029.000,1.000
-22.238,-7.814,-7.041,-8.033,-6.538,-4.341,0.091,7.300,-0.114,0.998,0.035,1.129,0.641,-0.244,60.000,63030.000,1.000
-20.052,-7.137,-5.994,-7.653,-4.117,-2.514,2.076,9.655,-0.115,0.997,0.033,1.068,0.671,-0.244,60.000,63031.000,1.000
-17.890,-4.998,-3.649,-5.799,-0.753,0.290,4.304,12.465,-0.117,0.998,0.033,0.977,0.641,-0.214,60.000,63032.000,1.000
-16.298,-2.090,-0.858,-3.235,2.512,3.093,5.860,14.713,-0.117,0.997,0.034,1.007,0.549,-0.214,60.000,63033.000,1.000
-15.780,0.398,0.898,-1.497,4.650,4.506,5.812,14.957,-0.118,0.997,0.036,1.160,0.549,-0.153,60.000,63034.000,1.000
-16.218,1.933,1.084,-1.089,5.260,4.182,3.962,12.990,-0.118,0.998,0.034,1.099,0.397,-0.244,60.000,63035.000,1.000
-16.773,2.984,0.645,-0.962,4.703,3.233,1.137,10.279,-0.118,1.000,0.033,1.129,0.397,-0.183,60.000,63036.000,1.000
-16.424,4.233,0.854,0.106,3.749,3.107,-1.375,8.513,-0.117,1.001,0.036,1.221,0.275,-0.366,60.000,63037.000,1.000
-14.684,5.611,1.887,1.942,2.977,4.158,-2.881,7.880,-0.116,1.001,0.035,1.068,0.183,-0.366,60.000,63038.000,1.000
-11.899,6.385,2.804,3.160,2.449,5.486,-3.773,7.147,-0.114,1.000,0.036,0.946,0.122,-0.488,60.000,63039.000,1.000
-8.951,6.070,2.804,2.773,1.885,6.083,-4.923,5.358,-0.114,0.999,0.035,0.946,0.031,-0.549,60.000,63040.000,1.000
-6.708,4.922,2.082,1.167,1.077,5.761,-6.741,2.924,-0.112,1.001,0.034,0.824,0.000,-0.702,60.000,63041.000,1.000
-5.576,3.531,1.421,-0.564,0.186,4.929,-8.878,0.924,-0.112,0.999,0.033,0.885,-0.183,-0.671,60.000,63042.000,1.000
-5.216,2.275,1.341,-1.739,-0.257,3.946,-10.579,-0.111,-0.112,0.997,0.031,0.854,-0.122,-0.702,60.000,63043.000,1.000
-4.763,1.305,1.838,-2.279,0.281,3.037,-11.173,-0.390,-0.110,1.000,0.034,1.007,-0.122,-0.702,60.000,63044.000,1.000
-3.587,0.825,2.734,-2.086,1.863,2.652,-10.374,-0.121,-0.108,0.999,0.033,0.946,-0.061,-0.793,60.000,63045.000,1.000
-1.796,1.176,4.003,-0.754,4.007,3.399,-8.349,0.921,-0.109,0.998,0.033,0.854,-0.031,-0.824,60.000,63046.000,1.000
0.011,2.502,5.595,1.837,6.086,5.343,-5.677,2.854,-0.110,0.999,0.032,0.763,-0.031,-0.854,60.000,63047.000,1.000
1.201,4.323,7.024,4.826,7.655,7.511,-3.231,4.960,-0.109,0.997,0.038,0.824,0.092,-0.854,60.000,63048.000,1.000
1.302,5.600,7.434,6.728,8.374,8.431,-1.926,5.957,-0.111,0.998,0.032,0.671,0.000,-0.793,60.000,63049.000,1.000
0.262,5.614,6.484,6.840,8.004,7.444,-2.210,5.262,-0.109,0.999,0.030,0.641,0.092,-0.854,60.000,63050.000,1.000
-1.234,4.787,5.075,6.077,6.781,5.483,-3.577,3.754,-0.109,1.001,0.031,0.580,0.275,-0.885,60.000,63051.000,1.000
-2.051,4.233,4.631,5.888,5.468,4.225,-4.845,2.810,-0.110,1.001,0.032,0.671,0.366,-0.946,60.000,63052.000,1.000
-1.495,4.472,5.545,6.487,4.727,4.436,-5.139,2.746,-0.111,1.000,0.032,0.641,0.458,-0.916,60.000,63053.000,1.000
0.175,5.003,6.807,6.752,4.569,5.457,-4.522,2.738,-0.113,0.999,0.030,0.549,0.549,-1.068,60.000,63054.000,1.000
2.047,5.106,7.212,5.805,4.519,6.310,-3.604,2.229,-0.112,0.999,0.031,0.397,0.458,-1.099,60.000,63055.000,1.000
3.219,4.653,6.484,4.078,4.202,6.868,-2.762,1.758,-0.112,1.000,0.032,0.336,0.549,-1.099,60.000,63056.000,1.000
3.238,4.016,5.037,2.615,3.736,7.682,-1.871,2.191,-0.112,0.998,0.033,0.244,0.580,-1.129,60.000,63057.000,1.000
2.173,3.518,3.125,1.802,3.650,9.084,-0.590,3.619,-0.113,0.997,0.033,0.397,0.549,-1.221,60.000,63058.000,1.000
0.573,3.294,0.826,1.309,4.497,10.899,1.296,5.454,-0.115,0.995,0.033,0.366,0.549,-1.160,60.000,63059.000,1.000
-0.689,3.592,-1.238,1.122,6.448,12.937,3.716,7.341,-0.116,0.994,0.032,0.427,0.488,-1.160,60.000,63060.000,1.000
-0.847,4.742,-1.891,1.926,9.086,15.261,6.284,9.394,-0.116,0.999,0.034,0.580,0.397,-1.190,60.000,63061.000,1.000
0.234,6.575,-0.551,4.082,11.502,17.659,8.304,11.367,-0.117,0.997,0.033,0.610,0.336,-1.312,60.000,63062.000,1.000
1.965,8.092,1.838,6.629,12.675,19.087,8.878,12.120,-0.118,0.996,0.032,0.610,0.305,-1.373,60.000,63063.000,1.000
3.553,8.083,3.491,7.983,11.970,18.284,7.389,10.486,-0.116,0.994,0.031,0.610,0.519,-1.434,60.000,63064.000,1.000
4.630,6.229,3.471,7.651,9.459,15.124,4.058,6.640,-0.118,0.995,0.029,0.671,0.427,-1.465,60.000,63065.000,1.000
5.402,3.444,2.429,6.694,5.837,10.959,-0.052,2.227,-0.118,0.995,0.031,0.763,0.336,-1.343,60.000,63066.000,1.000
6.302,1.095,1.657,6.364,2.120,7.502,-3.569,-0.978,-0.118,0.995,0.032,0.946,0.397,-1.373,60.000,63067.000,1.000
7.600,0.063,1.807,6.809,-0.563,5.685,-5.330,-2.257,-0.119,0.996,0.029,0.946,0.275,-1.434,60.000,63068.000,1.000
9.241,0.493,2.692,7.360,-1.257,5.533,-4.724,-1.793,-0.118,0.998,0.035,0.885,0.397,-1.404,60.000,63069.000,1.000
10.844,2.027,3.927,7.659,0.235,6.652,-1.985,0.116,-0.119,0.996,0.035,0.946,0.336,-1.282,60.000,63070.000,1.000
11.914,4.144,5.392,8.074,3.146,8.653,1.875,3.300,-0.119,0.997,0.036,0.916,0.214,-1.160,60.000,63071.000,1.000
12.304,6.455,7.137,9.077,6.414,11.231,5.678,7.273,-0.119,1.000,0.034,1.007,0.183,-1.160,60.000,63072.000,1.000
12.413,8.700,8.948,10.459,9.387,13.870,8.612,10.879,-0.116,1.001,0.032,1.068,0.183,-1.068,60.000,63073.000,1.000
12.906,10.645,10.369,11.538,11.885,15.848,10.358,12.847,-0.118,1.000,0.034,1.038,0.092,-1.007,60.000,63074.000,1.000
14.332,12.298,11.433,12.256,14.003,16.951,11.163,12.978,-0.117,1.002,0.035,1.038,0.214,-1.099,60.000,63075.000,1.000
16.915,14.009,12.939,13.530,15.927,17.784,11.644,12.386,-0.119,1.002,0.034,1.038,0.153,-1.068,60.000,63076.000,1.000
20.410,15.922,15.469,16.015,17.650,18.825,12.172,12.189,-0.119,1.002,0.033,1.038,0.000,-0.916,60.000,63077.000,1.000
24.123,17.488,18.417,18.936,18.861,19.494,12.464,12.268,-0.120,1.003,0.034,1.099,0.153,-0.946,60.000,63078.000,1.000
27.172,17.824,20.400,20.664,19.119,18.660,11.869,11.659,-0.119,1.002,0.033,0.946,0.153,-0.977,60.000,63079.000,1.000
28.846,16.542,20.597,20.362,18.132,16.063,10.067,9.964,-0.118,1.001,0.033,0.824,0.183,-0.977,60.000,63080.000,1.000
28.938,14.154,19.437,18.731,16.004,12.851,7.510,7.977,-0.119,1.001,0.035,0.671,0.122,-0.946,60.000,63081.000,1.000
27.764,11.610,17.929,17.039,13.314,10.480,5.108,6.747,-0.119,1.001,0.035,0.732,0.061,-0.854,60.000,63082.000,1.000
25.830,9.513,16.514,15.731,10.877,9.328,3.536,6.334,-0.119,1.001,0.036,0.580,0.153,-0.793,60.000,63083.000,1.000
23.501,7.896,14.865,14.375,9.297,8.748,2.903,5.893,-0.119,1.001,0.036,0.610,0.122,-0.885,60.000,63084.000,1.000
21.029,6.715,12.826,12.806,8.706,8.248,2.963,4.894,-0.119,1.001,0.037,0.580,0.153,-0.793,60.000,63085.000,1.000
18.810,6.257,11.135,11.750,8.900,8.113,3.422,3.800,-0.117,1.002,0.038,0.702,0.244,-0.702,60.000,63086.000,1.000
17.492,6.906,10.897,12.038,9.690,8.846,4.096,3.379,-0.117,1.001,0.034,0.549,0.214,-0.793,60.000,63087.000,1.000
17.628,8.572,12.418,13.468,11.011,10.348,4.902,3.677,-0.117,1.002,0.034,0.336,0.336,-0.854,60.000,63088.000,1.000
19.206,10.543,14.821,14.885,12.659,11.810,5.722,4.020,-0.119,1.002,0.035,0.305,0.336,-0.824,60.000,63089.000,1.000
21.638,11.979,16.855,15.412,14.047,12.375,6.296,3.949,-0.115,1.000,0.033,0.305,0.397,-0.824,60.000,63090.000,1.000
24.138,12.490,17.810,15.181,14.417,11.778,6.352,3.758,-0.114,1.000,0.033,0.275,0.427,-0.763,60.000,63091.000,1.000
26.000,12.105,17.480,14.663,13.373,10.269,5.817,3.904,-0.115,0.998,0.033,0.305,0.519,-0.763,60.000,63092.000,1.000
26.759,10.881,15.722,13.744,11.186,8.073,4.823,4.179,-0.114,0.998,0.035,0.336,0.671,-0.854,60.000,63093.000,1.000
26.397,8.883,12.645,12.025,8.650,5.368,3.605,3.933,-0.115,0.995,0.034,0.275,0.580,-0.854,60.000,63094.000,1.000
25.308,6.601,9.181,9.865,6.667,2.830,2.573,3.140,-0.116,0.995,0.035,0.427,0.641,-0.824,60.000,63095.000,1.000
23.914,4.946,6.878,8.490,5.862,1.663,2.346,2.745,-0.115,0.995,0.035,0.458,0.763,-0.793,60.000,63096.000,1.000
22.380,4.585,6.736,8.713,6.382,2.555,3.328,3.582,-0.116,0.995,0.035,0.366,0.824,-0.824,60.000,63097.000,1.000
20.663,5.296,8.228,9.776,7.746,4.661,5.055,5.075,-0.117,0.995,0.036,0.519,0.916,-0.702,60.000,63098.000,1.000
18.677,6.095,9.690,9.885,8.882,6.046,6.226,5.487,-0.118,0.993,0.034,0.549,0.854,-0.824,60.000,63099.000,1.000
16.489,6.079,9.785,8.013,8.638,5.371,5.722,3.672,-0.119,0.996,0.034,0.549,0.854,-0.824,60.000,63100.000,1.000
14.353,5.037,8.468,4.811,6.487,2.874,3.506,0.227,-0.119,0.997,0.036,0.580,0.977,-0.824,60.000,63101.000,1.000
12.544,3.262,6.466,1.613,2.812,-0.333,0.430,-3.387,-0.120,0.996,0.036,0.549,0.977,-0.885,60.000,63102.000,1.000
11.184,1.059,4.190,-1.049,-1.378,-3.478,-2.560,-6.415,-0.119,0.994,0.038,0.732,0.916,-0.946,60.000,63103.000,1.000
10.229,-1.327,1.598,-3.488,-4.932,-6.308,-4.822,-8.925,-0.120,0.996,0.036,0.671,0.916,-0.854,60.000,63104.000,1.000
9.543,-3.465,-1.065,-5.673,-6.959,-8.381,-5.904,-10.678,-0.120,0.998,0.036,0.732,0.916,-0.793,60.000,63105.000,1.000
8.940,-4.856,-3.028,-6.768,-7.166,-8.910,-5.523,-10.795,-0.120,0.998,0.037,0.671,0.977,-0.824,60.000,63106.000,1.000
8.169,-5.478,-3.781,-6.189,-6.001,-7.655,-3.868,-8.860,-0.121,0.997,0.036,0.671,0.977,-0.946,60.000,63107.000,1.000
7.002,-6.039,-3.846,-4.661,-4.430,-5.621,-1.742,-5.859,-0.120,0.996,0.035,0.702,0.946,-0.885,60.000,63108.000,1.000
5.464,-7.302,-4.293,-3.632,-3.388,-4.384,-0.168,-3.484,-0.119,0.998,0.039,0.671,0.946,-1.038,60.000,63109.000,1.000
4.040,-9.067,-5.401,-3.649,-3.230,-4.580,0.333,-2.495,-0.120,1.000,0.039,0.702,0.854,-1.007,60.000,63110.000,1.000
3.523,-10.059,-6.186,-3.740,-3.577,-5.296,0.131,-2.082,-0.120,0.998,0.040,0.671,0.854,-1.007,60.000,63111.000,1.000
4.554,-8.974,-5.477,-2.597,-3.601,-5.016,0.216,-0.897,-0.119,0.996,0.037,0.519,0.793,-0.946,60.000,63112.000,1.000
7.257,-5.529,-3.170,-0.032,-2.492,-2.922,1.547,1.543,-0.122,0.998,0.035,0.549,0.763,-0.854,60.000,63113.000,1.000
11.173,-0.508,-0.161,3.023,0.103,0.777,4.478,4.652,-0.121,0.998,0.035,0.610,0.824,-0.824,60.000,63114.000,1.000
15.463,4.964,2.780,5.712,3.842,5.425,8.588,7.727,-0.121,1.000,0.035,0.580,0.763,-0.763,60.000,63115.000,1.000
19.270,10.079,5.688,8.038,7.954,10.498,13.069,10.747,-0.122,0.999,0.036,0.610,0.824,-0.702,60.000,63116.000,1.000
21.917,14.309,8.809,10.263,11.765,15.574,17.335,14.051,-0.120,1.000,0.035,0.549,0.763,-0.702,60.000,63117.000,1.000
22.639,16.799,11.416,11.724,14.664,19.698,20.938,17.216,-0.122,1.000,0.036,0.458,0.671,-0.610,60.000,63118.000,1.000
20.452,16.221,11.696,10.803,15.643,21.171,22.947,18.670,-0.122,1.002,0.036,0.366,0.549,-0.519,60.000,63119.000,1.000
14.863,11.787,8.324,6.572,13.585,18.639,22.086,16.921,-0.123,1.003,0.037,0.336,0.519,-0.549,60.000,63120.000,1.000
6.745,4.367,1.987,0.196,8.367,12.448,17.863,12.115,-0.123,1.001,0.036,0.427,0.519,-0.519,60.000,63121.000,1.000
-1.853,-3.813,-5.039,-5.823,1.439,4.514,11.299,5.951,-0.122,1.000,0.032,0.488,0.519,-0.397,60.000,63122.000,1.000
-8.826,-10.727,-10.821,-9.811,-5.125,-3.220,4.208,0.052,-0.121,1.001,0.033,0.519,0.580,-0.305,60.000,63123.000,1.000
-12.971,-15.681,-14.973,-11.934,-10.167,-9.949,-2.145,-5.143,-0.121,1.001,0.034,0.305,0.549,-0.153,60.000,63124.000,1.000
-14.199,-18.931,-17.920,-13.044,-13.801,-15.601,-7.398,-9.684,-0.120,1.000,0.036,0.214,0.580,-0.153,60.000,63125.000,1.000
-13.183,-20.668,-19.570,-13.260,-16.387,-19.813,-11.332,-12.998,-0.118,0.998,0.036,0.427,0.488,-0.092,60.000,63126.000,1.000
-10.813,-20.851,-19.321,-12.249,-17.793,-21.985,-13.477,-14.266,-0.117,0.998,0.034,0.275,0.519,-0.031,60.000,63127.000,1.000
-7.924,-19.862,-17.245,-10.473,-17.801,-22.243,-13.727,-13.708,-0.119,0.995,0.037,0.275,0.488,-0.031,60.000,63128.000,1.000
-5.259,-18.576,-14.463,-9.131,-16.674,-21.500,-12.703,-12.579,-0.119,0.994,0.033,0.183,0.458,0.031,60.000,63129.000,1.000
-3.395,-17.574,-12.146,-8.731,-15.022,-20.336,-11.159,-11.681,-0.122,0.992,0.034,0.275,0.549,0.031,60.000,63130.000,1.000
-2.731,-16.862,-10.765,-8.583,-13.541,-18.672,-9.575,-10.745,-0.121,0.992,0.033,0.336,0.458,0.031,60.000,63131.000,1.000
-3.455,-16.419,-10.399,-7.962,-12.843,-16.702,-8.396,-9.503,-0.121,0.992,0.035,0.427,0.488,0.153,60.000,63132.000,1.000
-5.232,-16.457,-11.082,-7.095,-13.109,-15.324,-8.077,-8.569,-0.122,0.995,0.033,0.427,0.244,0.061,60.000,63133.000,1.000
-7.116,-17.017,-12.580,-6.650,-13.918,-15.315,-8.701,-8.812,-0.121,0.994,0.034,0.427,0.244,0.061,60.000,63134.000,1.000
-8.029,-17.556,-13.994,-6.479,-14.501,-16.303,-9.712,-10.025,-0.121,0.992,0.034,0.427,0.305,0.031,60.000,63135.000,1.000
-7.429,-17.166,-13.949,-5.404,-14.135,-16.863,-10.163,-10.679,-0.118,0.993,0.033,0.488,0.153,0.122,60.000,63136.000,1.000
-5.757,-15.518,-11.792,-2.696,-12.622,-16.013,-9.506,-9.449,-0.117,0.993,0.031,0.549,0.183,0.000,60.000,63137.000,1.000
-4.197,-13.399,-8.528,0.599,-10.470,-14.309,-8.051,-6.692,-0.117,0.990,0.031,0.763,0.183,0.122,60.000,63138.000,1.000
-3.771,-11.915,-5.985,2.552,-8.364,-12.974,-6.388,-3.858,-0.116,0.989,0.034,0.854,0.214,0.183,60.000,63139.000,1.000
-4.583,-11.317,-5.071,2.430,-6.559,-12.328,-4.643,-1.747,-0.116,0.989,0.035,0.977,0.275,0.244,60.000,63140.000,1.000
-5.899,-10.870,-5.138,1.345,-4.910,-11.610,-2.588,0.051,-0.113,0.990,0.036,1.190,0.244,0.397,60.000,63141.000,1.000
-6.775,-9.732,-4.936,0.912,-3.184,-10.118,-0.159,2.141,-0.112,0.990,0.031,1.343,0.336,0.580,60.000,63142.000,1.000
-6.688,-7.746,-3.872,1.678,-1.222,-8.061,2.386,4.329,-0.110,0.991,0.029,1.495,0.336,0.763,60.000,63143.000,1.000
-5.680,-5.355,-2.183,3.080,1.027,-6.171,4.695,5.902,-0.109,0.990,0.033,1.709,0.519,1.007,60.000,63144.000,1.000
-4.077,-2.956,-0.125,4.606,3.431,-4.775,6.500,6.615,-0.109,0.992,0.030,1.892,0.610,1.251,60.000,63145.000,1.000
-2.266,-0.656,2.379,6.353,5.580,-3.581,7.566,6.872,-0.112,0.993,0.029,2.014,0.671,1.587,60.000,63146.000,1.000
-0.641,1.365,5.134,8.314,6.933,-2.354,7.682,6.882,-0.115,0.992,0.030,2.228,0.763,1.831,60.000,63147.000,1.000
0.563,2.675,7.294,9.779,7.266,-1.391,6.886,6.203,-0.119,0.993,0.032,2.319,0.793,2.045,60.000,63148.000,1.000
1.377,2.893,7.958,9.899,6.854,-1.170,5.618,4.435,-0.123,0.993,0.033,2.411,0.641,2.228,60.000,63149.000,1.000
1.879,2.087,6.991,8.691,6.139,-1.704,4.527,2.117,-0.124,0.994,0.032,2.441,0.702,2.197,60.000,63150.000,1.000
1.918,0.802,5.147,7.123,5.391,-2.356,4.166,0.605,-0.126,0.996,0.036,2.594,0.458,2.319,60.000,63151.000,1.000
1.198,-0.363,3.304,6.045,4.750,-2.397,4.799,0.932,-0.128,0.998,0.034,2.869,0.214,2.258,60.000,63152.000,1.000
-0.387,-1.173,1.670,5.274,4.360,-1.660,6.349,2.866,-0.128,1.000,0.035,2.808,0.031,2.167,60.000,63153.000,1.000
-2.537,-1.694,-0.079,4.035,4.296,-0.529,8.448,5.277,-0.128,1.002,0.035,2.899,-0.244,2.136,60.000,63154.000,1.000
-4.715,-1.992,-1.995,2.137,4.345,0.555,10.514,7.289,-0.128,1.004,0.036,2.808,-0.519,2.014,60.000,63155.000,1.000
-6.566,-2.179,-3.643,0.188,3.941,1.264,11.809,8.722,-0.128,1.007,0.036,2.686,-0.671,1.923,60.000,63156.000,1.000
-8.114,-2.625,-4.802,-1.363,2.554,1.195,11.719,9.545,-0.127,1.008,0.035,2.655,-0.946,1.801,60.000,63157.000,1.000
-9.468,-3.719,-5.900,-2.800,0.318,0.002,10.248,9.546,-0.124,1.010,0.036,2.441,-1.160,1.709,60.000,63158.000,1.000
-10.429,-5.276,-7.403,-4.452,-1.839,-2.041,8.204,8.800,-0.124,1.010,0.036,2.350,-1.343,1.495,60.000,63159.000,1.000
-10.580,-6.408,-9.002,-5.804,-2.869,-3.811,6.644,8.078,-0.121,1.011,0.035,2.106,-1.526,1.221,60.000,63160.000,1.000
-9.768,-6.178,-9.740,-5.781,-2.406,-4.040,6.047,8.273,-0.121,1.014,0.036,1.953,-1.678,0.946,60.000,63161.000,1.000
-8.380,-4.459,-9.037,-4.065,-0.979,-2.482,5.981,9.251,-0.117,1.015,0.037,1.709,-1.831,0.824,60.000,63162.000,1.000
-7.032,-2.058,-7.354,-1.778,0.505,-0.242,5.524,9.624,-0.112,1.014,0.037,1.434,-1.953,0.671,60.000,63163.000,1.000
-5.951,0.117,-5.539,-0.372,1.519,1.291,4.143,8.139,-0.108,1.015,0.033,1.221,-1.892,0.549,60.000,63164.000,1.000
-4.745,1.956,-3.639,0.103,2.279,1.772,2.238,5.267,-0.106,1.015,0.032,0.977,-1.923,0.366,60.000,63165.000,1.000
-2.783,4.160,-0.776,1.161,3.429,2.054,0.838,2.982,-0.104,1.013,0.031,0.854,-1.740,0.305,60.000,63166.000,1.000
0.240,7.332,3.632,4.122,5.394,3.053,0.662,2.787,-0.100,1.012,0.033,0.580,-1.709,0.214,60.000,63167.000,1.000
4.024,11.121,8.781,8.486,7.930,4.544,1.398,4.167,-0.096,1.010,0.031,0.488,-1.495,0.153,60.000,63168.000,1.000
7.807,14.419,12.920,12.370,10.278,5.411,1.989,5.260,-0.093,1.006,0.033,0.397,-1.251,0.153,60.000,63169.000,1.000
10.821,16.443,14.942,14.468,11.788,5.104,1.658,4.887,-0.091,1.003,0.031,0.275,-0.946,0.153,60.000,63170.000,1.000
12.710,17.394,15.291,15.116,12.388,4.354,0.519,3.520,-0.091,1.002,0.032,0.244,-0.580,0.000,60.000,63171.000,1.000
13.614,17.999,15.226,15.354,12.540,4.253,-0.691,2.310,-0.091,1.001,0.032,0.153,-0.214,-0.122,60.000,63172.000,1.000
13.965,18.701,15.547,15.522,12.876,5.072,-1.186,1.744,-0.094,1.000,0.032,0.153,0.031,-0.122,60.000,63173.000,1.000
14.192,19.493,16.230,15.228,13.802,6.280,-0.518,1.506,-0.094,0.999,0.034,0.153,0.366,-0.153,60.000,63174.000,1.000
14.528,20.317,17.053,14.367,15.242,7.428,1.272,1.339,-0.095,0.999,0.033,0.061,0.702,-0.244,60.000,63175.000,1.000
14.955,21.289,18.083,13.548,16.704,8.635,3.707,1.526,-0.098,0.999,0.032,0.092,0.793,-0.427,60.000,63176.000,1.000
15.298,22.401,19.331,13.255,17.631,10.105,6.111,2.302,-0.098,1.000,0.032,0.000,1.038,-0.488,60.000,63177.000,1.000
15.381,23.234,20.213,13.017,17.731,11.474,7.878,3.116,-0.099,1.000,0.034,0.000,1.282,-0.549,60.000,63178.000,1.000
15.082,23.183,19.777,11.835,16.998,11.955,8.591,2.962,-0.102,0.999,0.038,-0.061,1.434,-0.702,60.000,63179.000,1.000
14.227,21.928,17.555,9.323,15.440,11.102,8.030,1.460,-0.102,0.998,0.036,-0.092,1.526,-0.885,60.000,63180.000,1.000
12.550,19.628,14.008,6.109,12.990,9.189,6.203,-0.742,-0.102,0.996,0.033,-0.153,1.648,-0.977,60.000,63181.000,1.000
10.017,16.729,10.143,3.090,9.779,6.776,3.406,-2.753,-0.103,0.994,0.030,-0.153,1.678,-1.099,60.000,63182.000,1.000
7.087,13.679,6.780,0.531,6.371,4.139,0.210,-4.362,-0.106,0.994,0.031,-0.244,1.740,-1.343,60.000,63183.000,1.000
4.498,10.889,4.276,-1.828,3.574,1.377,-2.636,-5.885,-0.106,0.993,0.036,-0.061,1.892,-1.465,60.000,63184.000,1.000
2.801,8.861,2.872,-3.874,1.983,-1.025,-4.412,-7.237,-0.108,0.994,0.032,-0.092,1.862,-1.587,60.000,63185.000,1.000
2.052,7.995,2.845,-4.912,1.597,-2.310,-4.844,-7.755,-0.109,0.993,0.034,-0.031,1.953,-1.770,60.000,63186.000,1.000
1.740,8.041,3.938,-4.684,1.795,-2.385,-4.409,-7.191,-0.109,0.993,0.035,0.000,1.923,-1.953,60.000,63187.000,1.000
1.101,8.006,4.991,-4.145,1.759,-2.232,-4.044,-6.432,-0.111,0.994,0.035,0.061,1.984,-2.075,60.000,63188.000,1.000
-0.149,7.079,4.810,-4.568,1.120,-2.925,-4.344,-6.673,-0.110,0.995,0.035,0.244,1.953,-2.106,60.000,63189.000,1.000
-1.399,5.550,3.456,-5.933,0.219,-4.392,-5.055,-7.957,-0.109,0.996,0.037,0.183,1.953,-2.106,60.000,63190.000,1.000
-1.824,4.363,2.114,-6.928,-0.408,-5.595,-5.500,-9.125,-0.110,0.997,0.038,0.092,2.045,-2.075,60.000,63191.000,1.000
-1.410,3.835,1.606,-6.715,-0.727,-5.959,-5.504,-9.374,-0.110,0.998,0.035,0.061,2.045,-2.014,60.000,63192.000,1.000
-0.953,3.339,1.542,-6.058,-1.138,-6.110,-5.608,-9.245,-0.110,0.999,0.034,0.153,2.228,-2.045,60.000,63193.000,1.000
-1.091,2.281,1.111,-6.254,-1.844,-6.976,-6.323,-9.702,-0.113,1.000,0.037,0.061,2.197,-1.923,60.000,63194.000,1.000
-1.663,0.955,0.331,-7.379,-2.601,-8.539,-7.501,-10.675,-0.114,0.999,0.035,0.153,2.197,-1.984,60.000,63195.000,1.000
-2.036,0.230,0.135,-8.164,-3.073,-9.775,-8.536,-11.063,-0.115,0.998,0.036,0.183,2.197,-1.953,60.000,63196.000,1.000
-1.868,0.524,1.184,-7.613,-3.192,-9.755,-8.934,-10.154,-0.114,0.997,0.038,0.244,2.167,-1.892,60.000,63197.000,1.000
-1.454,1.269,2.884,-6.273,-3.178,-8.600,-8.642,-8.621,-0.116,1.001,0.039,0.305,2.106,-1.831,60.000,63198.000,1.000
-1.327,1.499,3.892,-5.539,-3.284,-7.242,-7.911,-7.744,-0.121,1.002,0.039,0.366,2.045,-1.648,60.000,63199.000,1.000
-1.685,0.883,3.565,-5.869,-3.525,-6.291,-6.863,-7.751,-0.121,1.001,0.038,0.275,1.923,-1.587,60.000,63200.000,1.000
-2.357,0.004,2.563,-6.211,-3.594,-5.391,-5.245,-7.370,-0.120,1.002,0.040,0.244,1.831,-1.556,60.000,63201.000,1.000
-3.128,-0.382,1.840,-5.482,-3.201,-3.954,-2.885,-5.430,-0.121,1.001,0.038,0.275,1.617,-1.617,60.000,63202.000,1.000
-3.767,-0.198,1.304,-4.254,-2.651,-2.410,-0.496,-2.686,-0.124,1.000,0.038,0.214,1.495,-1.495,60.000,63203.000,1.000
-3.780,0.120,0.143,-4.181,-2.716,-1.957,0.589,-1.264,-0.125,0.999,0.037,0.244,1.373,-1.404,60.000,63204.000,1.000
-2.478,0.606,-1.529,-5.793,-3.659,-2.807,-0.146,-2.172,-0.124,0.998,0.035,0.183,1.190,-1.404,60.000,63205.000,1.000
0.523,2.051,-2.180,-7.703,-4.774,-3.535,-1.733,-4.161,-0.122,0.995,0.040,0.092,1.038,-1.495,60.000,63206.000,1.000
4.892,5.046,-0.454,-8.289,-5.062,-2.608,-2.726,-5.306,-0.121,0.994,0.039,0.031,0.977,-1.587,60.000,63207.000,1.000
9.614,9.032,3.182,-7.528,-4.134,-0.003,-2.450,-5.060,-0.123,0.989,0.039,0.244,0.854,-1.587,60.000,63208.000,1.000
13.514,12.615,6.781,-6.749,-2.446,2.981,-1.280,-4.383,-0.121,0.990,0.038,0.519,0.732,-1.617,60.000,63209.000,1.000
15.895,14.755,8.743,-6.864,-0.870,5.127,-0.058,-4.240,-0.120,0.990,0.035,0.519,0.610,-1.556,60.000,63210.000,1.000
16.750,15.463,8.989,-7.427,-0.054,6.223,0.646,-4.513,-0.120,0.994,0.037,0.610,0.610,-1.434,60.000,63211.000,1.000
16.526,15.416,8.389,-7.493,0.011,6.776,0.914,-4.440,-0.120,0.997,0.033,0.702,0.610,-1.343,60.000,63212.000,1.000
15.794,15.147,7.518,-6.949,-0.105,7.224,1.296,-3.689,-0.119,0.998,0.034,0.671,0.488,-1.160,60.000,63213.000,1.000
14.994,14.733,6.261,-6.567,0.202,7.634,2.310,-2.536,-0.119,1.000,0.035,0.854,0.427,-1.129,60.000,63214.000,1.000
14.224,14.099,4.500,-6.850,1.071,7.992,4.056,-1.132,-0.117,1.002,0.033,0.763,0.427,-1.068,60.000,63215.000,1.000
13.167,13.311,2.654,-7.435,2.105,8.366,6.131,0.752,-0.116,1.004,0.033,0.732,0.427,-0.885,60.000,63216.000,1.000
11.334,12.449,1.279,-7.848,2.741,8.605,7.830,3.007,-0.116,1.002,0.035,0.732,0.458,-0.702,60.000,63217.000,1.000
8.581,11.369,0.454,-8.315,2.716,8.164,8.558,4.713,-0.115,1.002,0.034,0.702,0.519,-0.671,60.000,63218.000,1.000
5.426,9.891,-0.114,-9.330,2.238,6.597,8.196,4.861,-0.117,1.002,0.033,0.488,0.580,-0.641,60.000,63219.000,1.000
2.779,8.174,-0.471,-10.574,1.718,4.168,7.116,3.541,-0.116,1.002,0.035,0.397,0.580,-0.580,60.000,63220.000,1.000
1.282,6.670,-0.296,-10.855,1.366,1.691,5.826,2.021,-0.117,1.001,0.036,0.336,0.641,-0.580,60.000,63221.000,1.000
0.873,5.628,0.501,-9.397,1.074,-0.291,4.611,1.425,-0.118,1.001,0.034,0.397,0.610,-0.610,60.000,63222.000,1.000
0.882,4.767,1.247,-6.983,0.570,-2.019,3.448,1.525,-0.119,0.999,0.032,0.305,0.610,-0.580,60.000,63223.000,1.000
0.501,3.551,0.882,-5.396,-0.379,-4.061,2.195,1.136,-0.122,1.000,0.033,0.122,0.549,-0.580,60.000,63224.000,1.000
-0.651,1.850,-0.921,-5.612,-1.808,-6.342,0.891,-0.351,-0.123,1.000,0.031,0.153,0.580,-0.702,60.000,63225.000,1.000
-2.248,0.193,-3.203,-6.826,-3.435,-7.879,-0.110,-2.181,-0.122,1.000,0.034,0.061,0.580,-0.732,60.000,63226.000,1.000
-3.558,-0.791,-4.583,-7.506,-4.762,-7.765,-0.428,-3.178,-0.123,1.000,0.037,0.092,0.641,-0.732,60.000,63227.000,1.000
-4.055,-1.077,-4.571,-7.089,-5.396,-6.296,-0.141,-3.173,-0.122,0.999,0.036,0.000,0.519,-0.702,60.000,63228.000,1.000
-3.686,-1.098,-3.678,-6.129,-5.223,-4.712,0.214,-2.988,-0.122,0.999,0.039,0.061,0.427,-0.793,60.000,63229.000,1.000
-2.696,-0.945,-2.366,-5.011,-4.301,-3.755,0.188,-3.144,-0.124,1.000,0.038,0.092,0.366,-0.732,60.000,63230.000,1.000
-1.439,-0.173,-0.535,-3.348,-2.788,-3.012,-0.200,-3.269,-0.123,1.002,0.036,0.031,0.458,-0.854,60.000,63231.000,1.000
-0.304,1.504,1.865,-0.843,-0.944,-1.775,-0.601,-2.831,-0.121,1.002,0.038,-0.092,0.488,-0.763,60.000,63232.000,1.000
0.499,3.739,4.271,1.896,1.056,0.090,-0.496,-1.810,-0.122,1.001,0.037,-0.275,0.305,-0.763,60.000,63233.000,1.000
1.072,5.867,5.838,3.814,3.190,2.286,0.627,-0.469,-0.120,1.000,0.038,-0.214,0.305,-0.702,60.000,63234.000,1.000
1.574,7.411,6.153,4.495,5.251,4.560,2.816,1.101,-0.118,0.999,0.038,-0.305,0.305,-0.641,60.000,63235.000,1.000
1.886,8.214,5.545,4.520,6.722,6.799,5.472,3.018,-0.119,1.000,0.038,-0.366,0.397,-0.671,60.000,63236.000,1.000
1.718,8.293,4.718,4.748,7.283,8.816,7.843,5.308,-0.117,1.000,0.037,-0.427,0.427,-0.641,60.000,63237.000,1.000
0.957,7.639,4.054,5.342,7.189,10.118,9.505,7.607,-0.118,0.998,0.038,-0.488,0.488,-0.610,60.000,63238.000,1.000
-0.254,6.215,3.409,5.785,6.952,10.164,10.366,9.372,-0.118,0.999,0.039,-0.641,0.519,-0.549,60.000,63239.000,1.000
-1.704,4.140,2.619,5.795,6.763,8.977,10.461,10.496,-0.119,0.998,0.038,-0.763,0.641,-0.488,60.000,63240.000,1.000
-3.316,1.639,1.796,5.680,6.213,7.150,9.709,11.284,-0.118,0.998,0.039,-0.702,0.580,-0.336,60.000,63241.000,1.000
-5.209,-1.262,0.878,5.522,4.537,5.068,7.833,11.642,-0.117,0.998,0.042,-0.702,0.610,-0.397,60.000,63242.000,1.000
-7.548,-4.797,-0.761,4.528,1.275,2.469,4.656,10.734,-0.117,0.997,0.041,-0.732,0.732,-0.214,60.000,63243.000,1.000
-10.271,-8.989,-3.796,1.800,-3.219,-0.933,0.536,7.880,-0.120,0.997,0.040,-0.671,0.793,-0.153,60.000,63244.000,1.000
-12.944,-13.116,-7.945,-2.322,-7.889,-4.537,-3.576,3.692,-0.120,0.995,0.041,-0.519,0.702,-0.153,60.000,63245.000,1.000
-14.949,-15.876,-11.716,-6.150,-11.583,-6.961,-6.664,-0.083,-0.120,0.995,0.042,-0.549,0.793,-0.122,60.000,63246.000,1.000
-15.885,-16.350,-13.524,-8.118,-13.619,-7.282,-8.321,-2.067,-0.121,0.992,0.041,-0.488,0.854,-0.153,60.000,63247.000,1.000
-15.882,-14.832,-13.094,-8.195,-14.005,-6.074,-8.951,-2.453,-0.121,0.994,0.041,-0.427,0.793,-0.061,60.000,63248.000,1.000
-15.487,-12.601,-11.499,-7.538,-13.296,-4.917,-9.351,-2.451,-0.120,0.994,0.041,-0.336,0.732,-0.122,60.000,63249.000,1.000
-15.178,-10.826,-9.844,-6.971,-12.244,-4.858,-10.076,-2.749,-0.118,0.995,0.042,-0.244,0.824,-0.092,60.000,63250.000,1.000
-14.999,-9.802,-8.327,-6.273,-11.472,-5.667,-11.178,-2.968,-0.118,0.994,0.041,-0.244,0.671,-0.153,60.000,63251.000,1.000
-14.647,-9.204,-6.639,-5.027,-11.236,-6.620,-12.452,-2.636,-0.119,0.993,0.041,-0.153,0.702,-0.183,60.000,63252.000,1.000
-13.756,-8.835,-4.813,-3.558,-11.355,-7.474,-13.671,-2.099,-0.119,0.991,0.040,-0.153,0.763,-0.214,60.000,63253.000,1.000
-12.154,-8.872,-3.351,-2.614,-11.413,-8.405,-14.588,-2.111,-0.117,0.991,0.040,-0.092,0.732,-0.122,60.000,63254.000,1.000
-10.060,-9.442,-2.628,-2.344,-11.180,-9.373,-15.006,-2.847,-0.117,0.992,0.040,-0.031,0.824,-0.092,60.000,63255.000,1.000
-8.078,-10.270,-2.500,-2.062,-10.827,-10.030,-14.996,-3.774,-0.116,0.994,0.040,0.031,0.916,-0.214,60.000,63256.000,1.000
-6.929,-10.962,-2.646,-1.223,-10.691,-10.310,-14.937,-4.554,-0.115,0.997,0.041,0.153,0.946,-0.305,60.000,63257.000,1.000
-7.084,-11.476,-3.107,-0.350,-10.918,-10.744,-15.222,-5.653,-0.116,0.996,0.041,0.183,0.977,-0.244,60.000,63258.000,1.000
-8.493,-12.091,-4.173,-0.625,-11.420,-11.967,-15.962,-7.797,-0.114,1.000,0.043,0.275,1.099,-0.336,60.000,63259.000,1.000
-10.704,-13.015,-5.841,-2.619,-12.205,-14.024,-17.043,-10.968,-0.116,1.000,0.043,0.336,1.038,-0.366,60.000,63260.000,1.000
-13.229,-14.243,-7.714,-5.764,-13.569,-16.377,-18.406,-14.292,-0.115,1.001,0.046,0.336,1.099,-0.366,60.000,63261.000,1.000
-15.751,-15.799,-9.557,-9.088,-15.823,-18.578,-20.097,-16.954,-0.116,1.002,0.043,0.305,1.129,-0.397,60.000,63262.000,1.000
-18.035,-17.872,-11.689,-12.110,-18.822,-20.712,-22.069,-18.942,-0.117,1.000,0.042,0.366,1.129,-0.397,60.000,63263.000,1.000
-19.836,-20.530,-14.474,-14.731,-21.887,-23.004,-24.020,-20.660,-0.116,1.001,0.043,0.366,1.068,-0.427,60.000,63264.000,1.000
-21.040,-23.418,-17.544,-16.565,-24.311,-25.259,-25.563,-22.086,-0.117,1.001,0.043,0.366,1.160,-0.488,60.000,63265.000,1.000
-21.813,-25.926,-19.885,-16.962,-25.866,-26.931,-26.536,-22.744,-0.116,1.002,0.042,0.366,1.160,-0.458,60.000,63266.000,1.000
-22.382,-27.603,-20.718,-15.780,-26.660,-27.627,-26.988,-22.429,-0.116,0.999,0.043,0.458,1.129,-0.427,60.000,63267.000,1.000
-22.741,-28.387,-20.171,-13.826,-26.683,-27.467,-26.922,-21.648,-0.116,0.999,0.042,0.427,1.160,-0.549,60.000,63268.000,1.000
-22.748,-28.535,-19.126,-12.335,-25.839,-26.999,-26.292,-21.202,-0.117,0.995,0.043,0.610,1.160,-0.610,60.000,63269.000,1.000
-22.395,-28.242,-18.392,-11.930,-24.299,-26.574,-25.141,-21.304,-0.119,0.996,0.044,0.610,1.190,-0.702,60.000,63270.000,1.000
-21.771,-27.290,-17.996,-12.110,-22.446,-25.826,-23.487,-21.189,-0.119,0.995,0.043,0.732,1.160,-0.732,60.000,63271.000,1.000
-20.836,-25.254,-17.435,-11.888,-20.440,-24.070,-21.166,-19.865,-0.118,0.995,0.044,0.793,1.099,-0.732,60.000,63272.000,1.000
-19.446,-22.137,-16.506,-10.869,-18.089,-21.160,-17.964,-17.208,-0.119,0.997,0.044,1.007,1.099,-0.732,60.000,63273.000,1.000
-17.553,-18.534,-15.467,-9.363,-15.137,-17.527,-13.845,-13.987,-0.121,0.997,0.040,1.129,1.007,-0.732,60.000,63274.000,1.000
-15.304,-15.282,-14.450,-7.577,-11.746,-13.726,-9.237,-10.971,-0.121,0.997,0.043,1.160,1.099,-0.793,60.000,63275.000,1.000
-13.079,-13.236,-13.339,-5.404,-8.852,-10.495,-5.302,-8.643,-0.121,1.000,0.040,1.373,1.068,-0.641,60.000,63276.000,1.000
-11.379,-13.100,-12.224,-3.095,-7.664,-8.829,-3.466,-7.537,-0.121,0.999,0.041,1.373,1.007,-0.732,60.000,63277.000,1.000
-10.527,-14.908,-11.500,-1.471,-8.441,-9.291,-4.172,-8.069,-0.121,0.999,0.039,1.404,0.916,-0.763,60.000,63278.000,1.000
-10.470,-17.731,-11.455,-1.171,-10.053,-11.274,-6.313,-9.861,-0.121,0.998,0.040,1.465,0.885,-0.580,60.000,63279.000,1.000
-11.018,-20.203,-12.020,-1.975,-11.061,-13.240,-8.156,-11.672,-0.121,0.999,0.040,1.465,0.763,-0.641,60.000,63280.000,1.000
-12.144,-21.443,-12.981,-3.153,-11.032,-13.810,-8.742,-12.323,-0.122,1.001,0.038,1.556,0.763,-0.519,60.000,63281.000,1.000
-13.795,-21.405,-14.239,-4.338,-10.513,-12.656,-8.231,-11.685,-0.122,1.002,0.041,1.556,0.610,-0.488,60.000,63282.000,1.000
-15.514,-20.502,-15.768,-5.829,-9.964,-10.472,-7.172,-10.664,-0.120,1.003,0.042,1.678,0.580,-0.336,60.000,63283.000,1.000
-16.623,-19.136,-17.440,-8.035,-9.262,-8.223,-5.883,-10.259,-0.121,1.001,0.042,1.617,0.549,-0.366,60.000,63284.000,1.000
-16.835,-17.567,-18.847,-10.678,-8.248,-6.446,-4.539,-10.714,-0.120,1.001,0.040,1.648,0.519,-0.427,60.000,63285.000,1.000
-16.425,-15.982,-19.291,-12.673,-7.191,-5.111,-3.382,-11.454,-0.121,1.001,0.037,1.709,0.488,-0.397,60.000,63286.000,1.000
-15.782,-14.546,-18.230,-12.981,-6.425,-4.006,-2.537,-11.729,-0.120,1.003,0.038,1.617,0.549,-0.305,60.000,63287.000,1.000
-15.070,-13.475,-15.974,-11.626,-5.917,-3.193,-1.857,-11.312,-0.119,1.002,0.035,1.556,0.488,-0.275,60.000,63288.000,1.000
-14.446,-13.097,-13.755,-9.708,-5.514,-3.041,-1.180,-10.523,-0.121,1.004,0.031,1.556,0.427,-0.214,60.000,63289.000,1.000
-14.324,-13.674,-12.801,-8.332,-5.388,-3.700,-0.580,-9.608,-0.119,1.001,0.031,1.526,0.458,-0.183,60.000,63290.000,1.000
-15.101,-15.025,-13.387,-7.683,-5.875,-4.643,-0.177,-8.305,-0.120,0.999,0.035,1.495,0.427,-0.275,60.000,63291.000,1.000
-16.639,-16.439,-14.894,-7.316,-6.913,-5.033,0.126,-6.286,-0.120,0.999,0.036,1.343,0.397,-0.214,60.000,63292.000,1.000
-18.208,-17.129,-16.588,-7.062,-7.829,-4.525,0.603,-3.830,-0.118,0.999,0.034,1.373,0.336,-0.092,60.000,63293.000,1.000
-19.009,-16.691,-17.993,-7.150,-7.769,-3.410,1.476,-1.671,-0.115,0.998,0.035,1.312,0.305,-0.183,60.000,63294.000,1.000
-18.699,-15.162,-18.651,-7.456,-6.335,-2.033,2.755,-0.120,-0.116,0.995,0.036,1.404,0.397,-0.153,60.000,63295.000,1.000
-17.422,-12.797,-17.956,-7.148,-3.824,-0.404,4.263,1.319,-0.116,0.997,0.032,1.404,0.427,-0.061,60.000,63296.000,1.000
-15.386,-9.870,-15.415,-5.372,-0.778,1.626,5.896,3.354,-0.115,0.994,0.035,1.434,0.519,-0.061,60.000,63297.000,1.000
-12.463,-6.642,-11.017,-2.062,2.596,3.996,7.813,6.187,-0.116,0.991,0.035,1.495,0.610,0.000,60.000,63298.000,1.000
-8.440,-3.457,-5.396,2.055,6.289,6.335,10.182,9.448,-0.115,0.992,0.033,1.556,0.549,-0.031,60.000,63299.000,1.000
-3.712,-0.804,0.292,6.041,9.792,8.207,12.676,12.573,-0.114,0.991,0.033,1.617,0.641,0.000,60.000,63300.000,1.000
0.609,0.938,4.863,9.261,12.106,9.496,14.541,15.145,-0.113,0.996,0.032,1.587,0.702,0.031,60.000,63301.000,1.000
3.457,1.812,7.585,11.415,12.683,10.476,15.340,16.966,-0.113,0.995,0.031,1.740,0.854,-0.031,60.000,63302.000,1.000
4.436,2.117,8.155,12.203,11.955,11.390,15.329,17.856,-0.114,0.994,0.031,1.770,0.916,-0.031,60.000,63303.000,1.000
3.676,1.966,6.534,11.271,10.724,12.036,14.920,17.568,-0.113,0.997,0.033,1.709,0.977,-0.061,60.000,63304.000,1.000
1.493,1.241,3.160,8.765,9.306,12.003,14.071,16.118,-0.115,0.997,0.034,1.678,1.038,0.061,60.000,63305.000,1.000
-1.558,0.031,-0.811,5.744,7.594,11.245,12.519,14.152,-0.115,0.999,0.033,1.617,1.099,0.031,60.000,63306.000,1.000
-4.511,-1.158,-3.924,3.554,5.759,10.170,10.397,12.557,-0.114,1.000,0.032,1.556,1.129,0.061,60.000,63307.000,1.000
-6.340,-1.800,-5.323,2.657,4.427,9.107,8.253,11.561,-0.113,1.002,0.031,1.556,1.160,0.000,60.000,63308.000,1.000
-6.534,-1.697,-5.106,2.461,4.156,8.088,6.574,10.584,-0.114,1.002,0.031,1.465,1.160,0.061,60.000,63309.000,1.000
-5.246,-0.801,-3.742,2.430,4.976,7.330,5.546,9.219,-0.114,1.002,0.036,1.404,1.251,0.000,60.000,63310.000,1.000
-3.091,0.907,-1.591,2.769,6.393,7.425,5.137,7.875,-0.114,1.003,0.036,1.343,1.404,0.061,60.000,63311.000,1.000
-0.947,3.026,0.698,3.640,7.635,8.591,5.090,7.079,-0.112,1.006,0.036,1.251,1.373,0.000,60.000,63312.000,1.000
0.354,4.576,1.907,4.307,8.086,10.024,4.911,6.610,-0.115,1.004,0.033,1.129,1.312,0.031,60.000,63313.000,1.000
0.480,4.692,1.069,3.770,7.656,10.521,4.177,5.883,-0.115,1.004,0.032,1.038,1.404,0.061,60.000,63314.000,1.000
-0.279,3.425,-1.484,2.068,6.657,9.673,2.828,4.875,-0.114,1.004,0.034,0.885,1.343,0.092,60.000,63315.000,1.000
-1.312,1.697,-4.197,0.444,5.398,8.136,1.110,4.181,-0.114,1.003,0.034,0.824,1.434,0.000,60.000,63316.000,1.000
-2.010,0.507,-5.468,0.136,4.112,6.827,-0.613,4.192,-0.114,1.004,0.036,0.793,1.556,-0.061,60.000,63317.000,1.000
-1.887,0.262,-4.699,1.240,3.182,6.111,-1.946,4.548,-0.114,1.001,0.036,0.702,1.526,-0.061,60.000,63318.000,1.000
-0.654,0.830,-2.280,2.935,3.105,5.886,-2.503,4.622,-0.114,1.001,0.037,0.519,1.556,-0.061,60.000,63319.000,1.000
1.699,2.075,1.156,4.649,4.136,6.218,-2.017,4.436,-0.111,1.001,0.032,0.488,1.587,-0.122,60.000,63320.000,1.000
4.836,4.044,5.123,6.547,6.008,7.445,-0.528,4.737,-0.111,1.001,0.035,0.366,1.587,-0.092,60.000,63321.000,1.000
8.188,6.654,9.046,8.814,8.142,9.617,1.598,6.072,-0.113,1.003,0.036,0.275,1.678,-0.061,60.000,63322.000,1.000
11.200,9.433,12.040,10.897,10.102,12.135,3.919,8.089,-0.113,1.001,0.033,0.275,1.587,-0.092,60.000,63323.000,1.000
13.394,11.649,13.225,11.810,11.694,14.085,6.078,9.924,-0.114,1.001,0.034,0.244,1.556,-0.061,60.000,63324.000,1.000
14.377,12.813,12.400,11.204,12.756,14.994,7.776,11.125,-0.114,1.000,0.036,0.122,1.648,-0.031,60.000,63325.000,1.000
14.150,13.144,10.497,9.961,13.231,15.220,8.836,11.978,-0.115,1.001,0.034,0.183,1.587,0.000,60.000,63326.000,1.000
13.313,13.359,9.046,9.430,13.418,15.460,9.352,12.940,-0.115,1.001,0.034,0.092,1.556,0.031,60.000,63327.000,1.000
12.640,13.804,8.894,10.026,13.782,15.854,9.557,13.891,-0.115,1.001,0.037,0.092,1.556,0.000,60.000,63328.000,1.000
12.451,14.035,9.591,10.892,14.374,15.846,9.517,14.178,-0.115,1.001,0.037,0.153,1.587,0.031,60.000,63329.000,1.000
12.459,13.345,10.117,11.041,14.621,14.949,9.062,13.446,-0.115,1.003,0.034,0.061,1.526,0.000,60.000,63330.000,1.000
12.076,11.457,9.814,10.338,13.759,13.251,7.993,12.113,-0.114,1.001,0.038,-0.061,1.495,0.031,60.000,63331.000,1.000
10.848,8.603,8.497,9.170,11.514,11.113,6.311,10.806,-0.114,1.000,0.036,-0.153,1.434,0.061,60.000,63332.000,1.000
8.779,5.258,6.129,7.659,8.407,8.720,4.360,9.616,-0.114,1.002,0.038,-0.214,1.465,0.092,60.000,63333.000,1.000
6.287,1.987,2.815,5.627,5.392,6.169,2.703,8.222,-0.113,0.999,0.038,-0.183,1.312,0.061,60.000,63334.000,1.000
3.935,-0.547,-0.761,3.302,3.242,3.915,1.832,6.664,-0.115,1.001,0.038,-0.122,1.251,0.092,60.000,63335.000,1.000
2.247,-1.653,-3.213,1.644,2.299,2.830,1.989,5.641,-0.115,1.001,0.037,-0.275,1.221,0.122,60.000,63336.000,1.000
1.605,-1.059,-3.359,1.479,2.533,3.423,3.011,5.682,-0.114,1.000,0.036,-0.092,1.312,0.092,60.000,63337.000,1.000
2.028,0.515,-1.492,2.331,3.423,4.914,4.142,6.107,-0.114,0.998,0.036,-0.122,1.160,0.092,60.000,63338.000,1.000
3.068,1.588,0.673,2.725,3.996,5.615,4.338,5.448,-0.113,0.998,0.035,-0.092,1.129,0.122,60.000,63339.000,1.000
4.094,1.160,1.729,1.987,3.532,4.645,3.212,3.241,-0.114,0.999,0.037,-0.214,1.129,0.092,60.000,63340.000,1.000
4.695,-0.491,1.831,1.134,2.197,2.748,1.421,0.770,-0.113,0.998,0.039,-0.275,1.068,0.000,60.000,63341.000,1.000
4.744,-2.459,1.893,1.491,0.695,1.077,-0.140,-0.410,-0.113,0.997,0.036,-0.183,0.946,0.122,60.000,63342.000,1.000
4.247,-4.240,2.129,2.940,-0.431,-0.183,-1.164,-0.157,-0.111,0.996,0.036,-0.214,1.007,0.183,60.000,63343.000,1.000
3.361,-5.746,2.063,4.203,-0.986,-1.497,-1.768,0.547,-0.111,0.995,0.036,-0.092,0.977,0.214,60.000,63344.000,1.000
2.567,-6.588,1.762,4.672,-0.835,-2.741,-1.855,1.196,-0.113,0.995,0.038,0.031,0.946,0.214,60.000,63345.000,1.000
2.568,-5.905,2.352,5.209,0.270,-2.880,-0.963,2.432,-0.110,0.997,0.040,0.153,0.885,0.244,60.000,63346.000,1.000
3.666,-3.320,4.788,6.758,2.351,-1.188,1.093,4.848,-0.110,0.997,0.039,0.092,0.916,0.214,60.000,63347.000,1.000
5.239,0.135,8.375,8.714,4.764,1.522,3.580,7.598,-0.111,0.997,0.038,0.153,0.946,0.153,60.000,63348.000,1.000
6.131,2.635,11.131,9.415,6.433,3.445,5.221,8.944,-0.112,0.997,0.037,0.244,0.854,0.122,60.000,63349.000,1.000
5.636,3.118,11.630,8.106,6.597,3.520,5.256,8.120,-0.112,0.997,0.038,0.244,0.763,0.153,60.000,63350.000,1.000
3.925,1.921,10.028,5.664,5.224,2.194,3.912,6.004,-0.111,0.998,0.037,0.214,0.763,0.214,60.000,63351.000,1.000
1.625,-0.012,7.283,3.263,2.813,0.507,1.909,3.797,-0.110,1.000,0.041,0.214,0.824,0.153,60.000,63352.000,1.000
-0.717,-2.124,4.003,1.013,0.042,-1.022,-0.141,1.703,-0.111,1.000,0.041,0.244,0.824,0.061,60.000,63353.000,1.000
-2.669,-4.184,0.520,-1.557,-2.364,-2.343,-1.807,-0.627,-0.110,1.000,0.040,0.183,0.854,0.153,60.000,63354.000,1.000
-3.773,-5.691,-2.329,-4.101,-3.784,-3.180,-2.723,-2.848,-0.111,0.999,0.042,0.275,0.732,0.122,60.000,63355.000,1.000
-3.693,-5.904,-3.271,-5.271,-3.976,-3.005,-2.709,-3.847,-0.111,1.000,0.041,0.122,0.763,0.122,60.000,63356.000,1.000
-2.389,-4.512,-1.603,-4.034,-3.072,-1.697,-1.869,-2.933,-0.113,0.998,0.039,0.092,0.732,-0.061,60.000,63357.000,1.000
-0.094,-2.060,2.032,-0.868,-1.360,0.100,-0.461,-0.718,-0.113,0.999,0.040,0.244,0.763,-0.031,60.000,63358.000,1.000
2.811,0.441,6.008,2.582,0.756,1.431,1.211,1.371,-0.109,0.999,0.040,0.214,0.702,-0.031,60.000,63359.000,1.000
5.869,2.315,8.920,5.001,2.727,1.926,2.870,2.446,-0.112,0.998,0.040,0.244,0.580,-0.092,60.000,63360.000,1.000
8.577,3.555,10.370,6.316,4.034,2.066,4.342,2.804,-0.112,0.999,0.041,0.214,0.671,-0.031,60.000,63361.000,1.000
10.450,4.380,10.585,6.994,4.428,2.382,5.516,3.135,-0.112,1.000,0.040,0.244,0.610,-0.153,60.000,63362.000,1.000
11.173,4.759,9.651,6.964,4.028,2.650,6.234,3.507,-0.112,0.999,0.040,0.305,0.580,-0.305,60.000,63363.000,1.000
10.824,4.633,7.623,5.850,3.285,2.323,6.442,3.574,-0.110,0.999,0.040,0.336,0.641,-0.336,60.000,63364.000,1.000
10.089,4.540,5.375,4.218,2.924,1.678,6.552,3.640,-0.109,0.999,0.040,0.305,0.610,-0.275,60.000,63365.000,1.000
10.066,5.579,4.617,3.777,3.667,2.011,7.347,4.841,-0.110,1.000,0.039,0.183,0.641,-0.305,60.000,63366.000,1.000
11.540,8.469,6.497,5.819,5.799,4.426,9.369,7.957,-0.109,1.001,0.041,0.061,0.702,-0.336,60.000,63367.000,1.000
14.445,12.866,10.470,9.799,9.092,8.794,12.553,12.425,-0.109,1.003,0.041,0.214,0.671,-0.275,60.000,63368.000,1.000
17.936,17.640,14.797,13.797,12.973,13.946,16.343,16.735,-0.110,1.002,0.037,0.031,0.641,-0.397,60.000,63369.000,1.000
20.517,21.275,17.660,15.925,16.277,18.256,19.668,19.400,-0.110,1.002,0.039,-0.031,0.732,-0.366,60.000,63370.000,1.000
20.278,21.994,17.694,15.067,17.116,19.949,20.874,19.397,-0.108,1.005,0.039,-0.092,0.763,-0.336,60.000,63371.000,1.000
15.962,18.375,14.176,10.893,13.872,17.601,18.377,16.137,-0.108,1.006,0.040,-0.061,0.824,-0.336,60.000,63372.000,1.000
8.103,10.322,7.280,3.763,6.541,10.875,11.757,9.552,-0.106,1.005,0.041,-0.122,0.854,-0.427,60.000,63373.000,1.000
-1.035,-0.480,-1.681,-5.075,-3.011,1.002,2.269,0.562,-0.107,1.005,0.041,-0.122,0.946,-0.366,60.000,63374.000,1.000
-8.612,-10.937,-10.230,-13.214,-11.948,-9.291,-7.601,-8.517,-0.106,1.004,0.038,-0.183,0.946,-0.275,60.000,63375.000,1.000
-12.512,-17.726,-15.538,-17.762,-17.741,-16.797,-15.267,-14.716,-0.107,1.003,0.041,-0.214,1.068,-0.427,60.000,63376.000,1.000
-12.103,-18.880,-16.043,-17.164,-19.131,-19.479,-19.143,-16.265,-0.106,1.002,0.041,-0.153,1.129,-0.336,60.000,63377.000,1.000
-8.172,-14.691,-12.445,-12.411,-16.334,-17.411,-19.006,-13.739,-0.107,1.001,0.040,-0.275,1.129,-0.336,60.000,63378.000,1.000
-2.374,-7.255,-7.011,-6.195,-10.693,-12.289,-15.706,-9.273,-0.109,1.000,0.042,-0.244,1.160,-0.275,60.000,63379.000,1.000
3.337,0.737,-1.996,-0.885,-4.251,-6.243,-10.808,-4.862,-0.107,0.996,0.041,-0.214,1.282,-0.244,60.000,63380.000,1.000
7.332,7.124,1.464,2.657,0.925,-0.914,-6.089,-1.438,-0.108,0.995,0.042,-0.092,1.251,-0.244,60.000,63381.000,1.000
8.972,10.890,3.370,4.644,3.675,2.806,-2.819,0.848,-0.106,0.993,0.043,-0.092,1.221,-0.214,60.000,63382.000,1.000
8.780,12.116,4.165,5.319,4.197,4.558,-1.277,1.927,-0.108,0.994,0.039,0.061,1.312,-0.183,60.000,63383.000,1.000
7.876,11.603,4.194,4.722,3.580,4.478,-0.883,1.737,-0.108,0.994,0.041,0.183,1.312,-0.214,60.000,63384.000,1.000
7.185,10.519,3.821,3.337,2.936,3.448,-0.732,0.735,-0.111,0.993,0.040,0.244,1.373,-0.244,60.000,63385.000,1.000
7.122,10.044,3.671,2.321,2.884,2.913,-0.124,0.008,-0.112,0.993,0.042,0.366,1.373,-0.275,60.000,63386.000,1.000
7.790,10.940,4.375,2.639,3.641,4.023,1.254,0.485,-0.110,0.995,0.042,0.397,1.404,-0.397,60.000,63387.000,1.000
9.057,13.081,5.960,4.001,5.194,6.746,3.286,2.002,-0.112,0.999,0.042,0.397,1.465,-0.488,60.000,63388.000,1.000
10.297,15.378,7.624,4.982,7.068,9.746,5.258,3.310,-0.110,1.002,0.045,0.366,1.343,-0.549,60.000,63389.000,1.000
10.526,16.517,8.455,4.465,8.316,11.405,6.087,3.253,-0.108,1.003,0.043,0.275,1.251,-0.580,60.000,63390.000,1.000
9.264,16.082,8.450,2.823,8.233,11.149,5.161,1.900,-0.109,1.004,0.042,0.336,1.282,-0.671,60.000,63391.000,1.000
7.116,14.771,8.411,1.361,6.989,9.648,2.917,0.220,-0.109,1.005,0.041,0.214,1.221,-0.732,60.000,63392.000,1.000
5.239,13.441,8.753,0.695,5.294,7.788,0.361,-1.198,-0.108,1.002,0.044,0.092,1.221,-0.610,60.000,63393.000,1.000
4.341,12.297,8.932,0.221,3.587,5.857,-1.843,-2.635,-0.109,1.001,0.042,0.122,1.251,-0.732,60.000,63394.000,1.000
4.374,11.215,8.354,-0.713,1.863,3.951,-3.603,-4.350,-0.109,1.000,0.041,0.122,1.160,-0.763,60.000,63395.000,1.000
5.003,10.467,7.421,-1.656,0.215,2.690,-4.873,-5.728,-0.110,0.998,0.041,0.000,1.190,-0.763,60.000,63396.000,1.000
5.962,10.540,7.072,-1.652,-0.893,2.787,-5.416,-5.875,-0.109,0.997,0.040,0.122,1.251,-0.824,60.000,63397.000,1.000
6.950,11.350,7.471,-0.691,-1.050,4.015,-5.191,-4.852,-0.109,0.999,0.040,0.122,1.251,-0.854,60.000,63398.000,1.000
7.598,12.244,7.846,0.193,-0.315,5.308,-4.529,-3.707,-0.107,0.999,0.043,0.122,1.282,-1.007,60.000,63399.000,1.000
7.726,12.854,7.668,0.355,0.915,5.995,-3.773,-3.162,-0.107,0.997,0.042,0.275,1.404,-1.007,60.000,63400.000,1.000
7.472,13.481,7.372,0.379,2.269,6.375,-2.954,-2.825,-0.106,0.995,0.038,0.366,1.343,-1.129,60.000,63401.000,1.000
7.068,14.450,7.656,1.136,3.540,6.856,-1.976,-1.983,-0.106,0.994,0.040,0.488,1.373,-1.099,60.000,63402.000,1.000
6.613,15.450,8.491,2.513,4.638,7.127,-0.894,-0.703,-0.108,0.993,0.042,0.488,1.373,-1.068,60.000,63403.000,1.000
6.144,15.848,9.207,3.613,5.597,6.668,0.201,0.396,-0.110,0.996,0.046,0.610,1.404,-1.129,60.000,63404.000,1.000
5.867,15.570,9.483,4.083,6.579,5.800,1.424,1.237,-0.112,0.996,0.046,0.610,1.404,-1.282,60.000,63405.000,1.000
6.157,15.310,9.836,4.626,7.714,5.599,2.953,2.472,-0.114,0.996,0.044,0.580,1.373,-1.373,60.000,63406.000,1.000
7.216,15.638,10.834,5.921,8.823,6.563,4.563,4.366,-0.116,0.997,0.045,0.671,1.434,-1.373,60.000,63407.000,1.000
8.826,16.265,12.133,7.516,9.472,7.842,5.574,6.038,-0.118,0.998,0.046,0.702,1.312,-1.587,60.000,63408.000,1.000
10.544,16.470,12.773,8.316,9.410,8.120,5.463,6.330,-0.119,0.999,0.041,0.763,1.160,-1.740,60.000,63409.000,1.000
11.964,15.935,12.257,7.950,8.716,6.977,4.322,5.143,-0.118,1.000,0.040,0.732,1.068,-1.892,60.000,63410.000,1.000
12.821,14.943,11.033,7.183,7.599,5.144,2.700,3.527,-0.119,1.000,0.042,0.702,0.946,-1.953,60.000,63411.000,1.000
13.203,14.027,9.999,7.022,6.394,3.698,1.257,2.601,-0.117,1.004,0.042,0.641,0.885,-2.045,60.000,63412.000,1.000
13.576,13.485,9.664,7.629,5.608,3.150,0.512,2.591,-0.119,1.004,0.043,0.641,0.702,-2.136,60.000,63413.000,1.000
14.309,13.154,9.817,8.264,5.591,3.249,0.643,2.954,-0.118,1.006,0.045,0.671,0.610,-2.014,60.000,63414.000,1.000
15.243,12.748,10.060,8.341,6.211,3.591,1.500,3.357,-0.118,1.006,0.044,0.580,0.641,-2.075,60.000,63415.000,1.000
