EEG 1,EEG 2,EEG 3,EEG 4,EEG 5,EEG 6,EEG 7,EEG 8,Accelerometer X,Accelerometer Y,Accelerometer Z,Gyroscope X,Gyroscope Y,Gyroscope Z,Battery Level,Counter,Validation Indicator
-0.005,-1.164,4.379,-1.495,0.645,5.893,4.546,4.458,-0.163,1.001,0.136,4.883,2.625,-2.686,60.000,18873.000,1.000
-1.018,-1.701,2.690,-3.398,0.486,5.832,5.435,3.755,-0.165,1.004,0.136,4.730,2.716,-2.533,60.000,18874.000,1.000
-1.898,-2.802,0.873,-5.064,-0.144,4.282,4.876,2.057,-0.168,1.009,0.139,4.608,2.777,-2.289,60.000,18875.000,1.000
-2.193,-3.734,0.425,-5.025,-0.824,2.514,3.659,0.730,-0.171,1.012,0.139,4.211,2.716,-2.014,60.000,18876.000,1.000
-1.908,-4.304,1.541,-3.441,-1.363,0.915,2.189,-0.016,-0.173,1.013,0.140,3.967,2.686,-1.862,60.000,18877.000,1.000
-1.188,-4.676,3.195,-1.722,-1.673,-0.914,0.421,-0.973,-0.175,1.013,0.140,3.571,2.533,-1.617,60.000,18878.000,1.000
-0.037,-4.780,4.498,-0.773,-1.679,-3.090,-1.682,-2.549,-0.177,1.015,0.144,3.235,2.411,-1.404,60.000,18879.000,1.000
1.483,-4.299,5.416,-0.237,-1.469,-4.986,-3.907,-4.156,-0.179,1.011,0.140,2.716,2.136,-1.251,60.000,18880.000,1.000
2.932,-3.266,6.097,0.450,-1.407,-5.963,-5.960,-5.068,-0.182,1.011,0.140,2.411,1.831,-1.007,60.000,18881.000,1.000
3.576,-2.376,6.007,0.844,-1.878,-6.123,-7.580,-5.376,-0.183,1.008,0.142,2.167,1.495,-0.824,60.000,18882.000,1.000
2.749,-2.590,4.153,-0.204,-3.012,-6.165,-8.586,-5.781,-0.183,1.005,0.139,1.831,1.251,-0.610,60.000,18883.000,1.000
0.180,-4.445,0.180,-3.127,-4.738,-6.671,-9.026,-6.593,-0.183,1.003,0.138,1.648,0.946,-0.488,60.000,18884.000,1.000
-3.763,-7.596,-4.922,-6.888,-6.868,-7.643,-9.162,-7.229,-0.183,1.001,0.137,1.404,0.549,-0.458,60.000,18885.000,1.000
-8.092,-11.016,-9.387,-9.884,-8.994,-8.697,-9.243,-6.905,-0.179,0.998,0.138,1.343,0.244,-0.275,60.000,18886.000,1.000
-11.553,-13.611,-11.920,-11.373,-10.429,-9.517,-9.247,-5.563,-0.179,0.995,0.139,1.282,0.000,-0.153,60.000,18887.000,1.000
-13.170,-14.674,-12.296,-11.685,-10.505,-9.901,-8.816,-3.813,-0.176,0.991,0.137,1.282,-0.397,0.000,60.000,18888.000,1.000
-12.644,-13.924,-10.841,-11.160,-9.049,-9.521,-7.528,-2.034,-0.175,0.990,0.135,1.404,-0.671,-0.061,60.000,18889.000,1.000
-10.370,-11.406,-7.780,-9.417,-6.503,-7.907,-5.256,0.091,-0.176,0.990,0.138,1.526,-0.854,0.031,60.000,18890.000,1.000
-7.168,-7.668,-3.525,-6.101,-3.629,-5.046,-2.384,2.853,-0.174,0.990,0.138,1.526,-1.068,0.092,60.000,18891.000,1.000
-4.053,-4.001,0.620,-2.117,-1.231,-2.035,0.134,5.496,-0.171,0.989,0.139,1.678,-1.160,0.214,60.000,18892.000,1.000
-1.971,-1.941,2.871,0.640,0.074,-0.578,1.162,6.502,-0.168,0.989,0.136,1.831,-1.404,0.214,60.000,18893.000,1.000
-1.421,-2.151,2.428,1.025,0.100,-1.480,0.156,5.120,-0.167,0.991,0.134,1.923,-1.526,0.214,60.000,18894.000,1.000
-2.234,-3.864,0.247,-0.278,-0.820,-3.899,-2.375,2.289,-0.165,0.992,0.134,1.984,-1.678,0.214,60.000,18895.000,1.000
-3.638,-5.511,-1.807,-1.567,-1.897,-6.136,-5.142,-0.163,-0.162,0.993,0.134,1.984,-1.709,0.336,60.000,18896.000,1.000
-4.620,-5.940,-2.488,-1.798,-2.227,-7.052,-6.804,-1.109,-0.159,0.997,0.134,2.197,-1.617,0.397,60.000,18897.000,1.000
-4.556,-5.149,-1.908,-1.247,-1.392,-6.686,-6.659,-0.740,-0.158,0.997,0.136,2.258,-1.709,0.458,60.000,18898.000,1.000
-3.620,-3.911,-0.930,-0.603,0.194,-5.638,-4.882,0.276,-0.156,0.998,0.138,2.167,-1.526,0.488,60.000,18899.000,1.000
-2.541,-2.929,-0.180,0.051,1.638,-4.300,-2.284,1.686,-0.155,1.000,0.135,2.197,-1.556,0.549,60.000,18900.000,1.000
-1.904,-2.465,0.232,1.009,2.304,-2.921,0.157,3.454,-0.152,0.998,0.131,2.258,-1.495,0.549,60.000,18901.000,1.000
-1.625,-2.463,0.406,2.151,2.300,-2.023,1.714,5.150,-0.152,0.998,0.134,2.289,-1.404,0.519,60.000,18902.000,1.000
-1.179,-2.723,0.478,2.941,2.262,-2.192,2.152,6.116,-0.151,0.996,0.134,2.380,-1.251,0.519,60.000,18903.000,1.000
-0.505,-3.201,0.525,3.031,2.468,-3.593,1.594,6.080,-0.152,0.999,0.133,2.502,-1.221,0.427,60.000,18904.000,1.000
-0.444,-4.227,0.402,2.474,2.249,-5.959,0.108,5.229,-0.152,1.000,0.135,2.441,-1.038,0.214,60.000,18905.000,1.000
-1.895,-6.161,-0.257,1.399,0.685,-8.821,-2.303,3.796,-0.152,0.998,0.134,2.350,-0.916,0.092,60.000,18906.000,1.000
-4.747,-8.854,-1.848,-0.333,-2.196,-11.608,-5.229,1.836,-0.153,0.999,0.135,2.380,-0.824,-0.031,60.000,18907.000,1.000
-7.874,-11.585,-4.471,-2.899,-5.256,-13.742,-7.702,-0.501,-0.154,0.999,0.134,2.319,-0.610,-0.244,60.000,18908.000,1.000
-10.015,-13.373,-7.498,-5.782,-7.221,-14.701,-8.804,-2.581,-0.152,0.996,0.134,2.319,-0.519,-0.458,60.000,18909.000,1.000
-10.439,-13.350,-9.541,-7.566,-7.497,-14.070,-8.295,-3.370,-0.154,0.997,0.134,2.411,-0.397,-0.610,60.000,18910.000,1.000
-8.910,-11.081,-9.179,-6.866,-6.035,-11.697,-6.464,-2.104,-0.155,0.996,0.134,2.319,-0.305,-0.885,60.000,18911.000,1.000
-5.418,-6.800,-5.940,-3.592,-2.897,-7.918,-3.601,1.003,-0.154,0.997,0.137,2.411,-0.336,-1.099,60.000,18912.000,1.000
-0.267,-1.400,-0.654,0.900,1.628,-3.523,0.044,4.774,-0.154,1.000,0.135,2.441,-0.244,-1.434,60.000,18913.000,1.000
5.639,3.907,5.173,4.978,6.616,0.601,3.908,7.913,-0.154,1.001,0.131,2.502,-0.244,-1.709,60.000,18914.000,1.000
10.846,8.031,10.158,7.806,10.578,3.718,6.979,9.695,-0.154,1.000,0.134,2.319,-0.153,-1.801,60.000,18915.000,1.000
14.031,10.280,13.335,9.217,12.237,5.260,8.250,9.882,-0.156,0.997,0.137,2.258,0.061,-1.953,60.000,18916.000,1.000
14.849,10.529,14.193,9.115,11.456,4.985,7.488,8.462,-0.155,0.999,0.135,2.319,0.061,-2.075,60.000,18917.000,1.000
14.098,9.278,12.912,7.547,9.352,3.295,5.563,5.849,-0.156,0.999,0.137,2.289,0.061,-2.075,60.000,18918.000,1.000
12.995,7.483,10.551,5.223,7.432,1.276,3.942,3.184,-0.157,0.999,0.135,2.197,0.183,-2.197,60.000,18919.000,1.000
12.336,6.118,8.637,3.456,6.590,0.177,3.779,1.979,-0.159,0.998,0.137,2.197,0.244,-2.197,60.000,18920.000,1.000
12.252,5.652,8.176,3.197,6.859,0.587,5.301,3.057,-0.157,0.997,0.137,2.136,0.305,-2.289,60.000,18921.000,1.000
12.504,5.856,8.958,4.180,7.807,2.031,7.833,5.789,-0.158,0.997,0.137,2.258,0.427,-2.167,60.000,18922.000,1.000
12.780,6.128,9.841,5.176,8.846,3.351,10.240,8.532,-0.160,0.998,0.139,2.289,0.458,-2.136,60.000,18923.000,1.000
12.762,6.056,9.781,5.224,9.327,3.610,11.479,9.935,-0.161,0.998,0.139,2.228,0.519,-2.136,60.000,18924.000,1.000
12.222,5.787,8.694,4.554,8.872,2.842,11.185,9.918,-0.162,0.997,0.136,2.136,0.519,-2.075,60.000,18925.000,1.000
11.255,5.855,7.311,4.148,7.797,1.881,9.920,9.376,-0.165,0.997,0.137,2.167,0.519,-1.923,60.000,18926.000,1.000
10.343,6.598,6.327,4.521,6.956,1.443,8.671,9.072,-0.167,0.997,0.137,2.136,0.519,-1.892,60.000,18927.000,1.000
10.037,7.808,5.911,5.356,7.056,1.563,8.093,9.125,-0.167,0.996,0.135,2.197,0.519,-1.770,60.000,18928.000,1.000
10.460,8.982,6.018,6.268,8.132,1.957,8.291,9.501,-0.166,0.994,0.137,2.228,0.580,-1.709,60.000,18929.000,1.000
11.065,9.659,6.633,7.305,9.517,2.458,8.967,10.327,-0.166,0.991,0.135,2.258,0.488,-1.709,60.000,18930.000,1.000
10.980,9.482,7.485,8.413,10.277,2.870,9.580,11.399,-0.166,0.991,0.135,2.472,0.458,-1.556,60.000,18931.000,1.000
9.717,8.232,7.838,8.907,9.869,2.774,9.644,11.896,-0.166,0.992,0.134,2.533,0.427,-1.526,60.000,18932.000,1.000
7.556,6.041,6.936,7.993,8.465,1.885,9.057,11.063,-0.166,0.991,0.132,2.655,0.397,-1.495,60.000,18933.000,1.000
5.264,3.592,4.773,5.870,6.771,0.622,8.243,9.225,-0.165,0.989,0.134,2.686,0.366,-1.495,60.000,18934.000,1.000
3.531,2.013,2.331,3.948,5.635,0.139,7.992,7.857,-0.165,0.990,0.134,2.838,0.366,-1.404,60.000,18935.000,1.000
2.609,2.172,0.742,3.489,5.575,1.281,8.807,8.210,-0.163,0.993,0.133,2.930,0.427,-1.190,60.000,18936.000,1.000
2.173,3.815,0.083,4.013,6.302,3.355,10.133,9.777,-0.162,0.995,0.133,3.052,0.458,-1.099,60.000,18937.000,1.000
1.554,5.640,-0.648,3.601,6.777,4.489,10.507,10.506,-0.162,0.996,0.134,3.021,0.519,-1.068,60.000,18938.000,1.000
0.323,6.449,-2.194,0.980,5.995,3.422,8.721,8.767,-0.162,0.997,0.133,3.204,0.580,-0.916,60.000,18939.000,1.000
-1.291,6.076,-4.054,-3.081,3.767,0.589,4.829,4.825,-0.160,0.999,0.135,3.174,0.702,-0.732,60.000,18940.000,1.000
-2.567,5.155,-5.080,-6.662,0.801,-2.612,0.069,0.269,-0.162,0.999,0.134,3.021,0.824,-0.549,60.000,18941.000,1.000
-2.794,4.333,-4.726,-8.514,-1.809,-5.122,-4.002,-3.580,-0.162,1.001,0.133,2.838,0.824,-0.397,60.000,18942.000,1.000
-1.640,3.960,-3.300,-8.608,-3.120,-6.580,-6.263,-6.316,-0.162,1.003,0.131,2.899,0.946,-0.336,60.000,18943.000,1.000
0.779,4.305,-1.164,-7.238,-2.652,-6.782,-6.297,-7.836,-0.162,1.003,0.136,2.747,0.916,-0.092,60.000,18944.000,1.000
3.977,5.601,1.713,-4.418,-0.548,-5.455,-4.378,-7.848,-0.161,1.004,0.137,2.716,1.007,-0.061,60.000,18945.000,1.000
7.290,7.775,5.274,-0.419,2.508,-2.677,-1.288,-6.286,-0.163,1.006,0.136,2.411,0.885,0.000,60.000,18946.000,1.000
10.220,10.361,8.922,3.725,5.765,0.875,2.157,-3.744,-0.165,1.004,0.135,2.167,0.916,0.092,60.000,18947.000,1.000
12.722,12.836,11.922,6.854,8.867,4.370,5.535,-1.040,-0.165,1.004,0.135,1.984,0.885,0.214,60.000,18948.000,1.000
15.080,14.984,14.128,8.774,11.761,7.359,8.693,1.529,-0.166,1.005,0.137,1.709,0.854,0.183,60.000,18949.000,1.000
17.405,16.844,15.987,10.290,14.210,9.763,11.354,4.228,-0.167,1.004,0.135,1.709,0.732,0.153,60.000,18950.000,1.000
19.246,18.316,17.708,11.984,15.639,11.452,13.044,7.133,-0.168,1.005,0.137,1.495,0.610,0.153,60.000,18951.000,1.000
19.825,18.956,18.628,13.192,15.469,11.974,13.308,9.496,-0.168,1.001,0.138,1.312,0.427,0.092,60.000,18952.000,1.000
18.765,18.331,17.784,12.673,13.593,10.908,11.947,10.209,-0.167,0.999,0.134,1.251,0.305,-0.031,60.000,18953.000,1.000
16.522,16.587,15.149,10.264,10.550,8.543,9.229,9.025,-0.166,1.000,0.134,1.160,0.275,0.000,60.000,18954.000,1.000
14.027,14.395,11.910,7.331,7.168,5.858,5.804,6.955,-0.166,0.996,0.131,1.221,0.092,0.000,60.000,18955.000,1.000
11.953,12.298,9.330,5.329,4.036,3.553,2.249,5.159,-0.166,0.995,0.134,1.160,0.000,-0.031,60.000,18956.000,1.000
10.342,10.284,7.564,4.305,1.315,1.367,-1.232,3.708,-0.167,0.995,0.134,1.068,-0.092,0.122,60.000,18957.000,1.000
8.760,8.066,5.755,3.142,-1.013,-1.342,-4.552,1.842,-0.166,0.993,0.134,1.129,-0.183,0.092,60.000,18958.000,1.000
6.712,5.579,3.100,1.051,-2.978,-4.590,-7.443,-0.718,-0.165,0.991,0.132,1.221,-0.122,0.000,60.000,18959.000,1.000
4.043,3.128,-0.351,-1.506,-4.636,-7.608,-9.546,-3.175,-0.165,0.993,0.133,1.251,-0.275,-0.061,60.000,18960.000,1.000
1.206,1.258,-3.741,-3.298,-5.877,-9.433,-10.506,-4.377,-0.162,0.992,0.134,1.282,-0.366,-0.122,60.000,18961.000,1.000
-0.883,0.490,-6.095,-3.507,-6.230,-9.492,-9.992,-3.884,-0.161,0.990,0.133,1.404,-0.366,0.031,60.000,18962.000,1.000
-1.472,0.983,-7.005,-2.336,-5.224,-7.826,-7.971,-2.235,-0.159,0.990,0.133,1.556,-0.427,0.092,60.000,18963.000,1.000
-0.495,2.503,-6.612,-0.395,-2.920,-4.838,-4.890,-0.149,-0.160,0.989,0.130,1.648,-0.336,0.122,60.000,18964.000,1.000
1.535,4.721,-5.127,2.103,0.108,-0.894,-1.344,2.302,-0.159,0.990,0.130,1.831,-0.305,0.122,60.000,18965.000,1.000
3.838,7.216,-2.887,5.003,3.122,3.607,2.227,5.308,-0.162,0.993,0.128,1.953,-0.366,0.153,60.000,18966.000,1.000
5.470,9.111,-0.926,7.272,5.296,7.610,5.138,8.185,-0.162,0.991,0.129,1.953,-0.397,0.214,60.000,18967.000,1.000
5.487,9.225,-0.764,7.253,5.728,9.426,6.182,9.367,-0.162,0.994,0.127,2.075,-0.305,0.214,60.000,18968.000,1.000
3.477,7.039,-3.062,4.358,3.987,8.136,4.604,8.005,-0.162,0.995,0.129,2.106,-0.275,0.153,60.000,18969.000,1.000
-0.072,3.321,-6.777,0.084,0.683,4.724,1.165,5.116,-0.162,0.997,0.133,2.136,-0.244,0.122,60.000,18970.000,1.000
-4.085,-0.475,-10.106,-3.217,-2.812,1.207,-2.337,2.619,-0.162,0.996,0.130,1.984,-0.092,0.153,60.000,18971.000,1.000
-7.477,-3.214,-11.983,-4.357,-5.203,-1.076,-4.391,1.577,-0.162,0.997,0.130,2.106,-0.122,0.153,60.000,18972.000,1.000
-9.417,-4.401,-12.341,-3.777,-5.849,-1.981,-4.483,1.768,-0.162,0.995,0.127,2.045,-0.122,0.092,60.000,18973.000,1.000
-9.466,-3.964,-11.351,-2.349,-4.881,-1.909,-3.023,2.610,-0.161,0.994,0.129,2.136,-0.031,0.183,60.000,18974.000,1.000
-7.836,-2.169,-9.045,-0.442,-3.020,-1.212,-0.956,3.860,-0.161,0.993,0.125,2.014,-0.092,0.183,60.000,18975.000,1.000
-5.417,0.352,-5.727,1.742,-1.131,-0.173,0.781,5.324,-0.161,0.993,0.125,2.106,-0.061,0.214,60.000,18976.000,1.000
-3.162,2.986,-2.138,3.675,0.505,1.058,1.940,6.549,-0.161,0.992,0.122,2.106,-0.031,0.275,60.000,18977.000,1.000
-1.313,5.655,1.173,5.012,2.553,2.751,3.277,7.340,-0.161,0.993,0.125,2.045,0.000,0.122,60.000,18978.000,1.000
0.423,8.430,4.097,6.137,5.675,5.270,5.692,8.088,-0.161,0.994,0.122,1.984,0.092,0.183,60.000,18979.000,1.000
1.971,10.520,6.273,7.540,9.080,8.097,8.793,9.006,-0.161,0.992,0.119,2.075,0.153,0.244,60.000,18980.000,1.000
2.695,10.388,6.730,8.808,10.744,9.725,10.897,9.376,-0.159,0.996,0.119,2.136,0.122,0.183,60.000,18981.000,1.000
2.239,7.284,4.731,8.798,9.343,8.956,10.693,8.054,-0.158,0.996,0.120,2.167,0.275,0.244,60.000,18982.000,1.000
1.189,2.311,0.813,6.880,5.522,6.075,8.417,4.667,-0.157,0.998,0.122,2.197,0.397,0.397,60.000,18983.000,1.000
0.715,-2.284,-3.274,3.815,1.122,2.588,5.264,0.116,-0.159,1.001,0.121,2.014,0.305,0.610,60.000,18984.000,1.000
1.756,-4.685,-5.621,1.352,-2.327,0.031,2.268,-3.994,-0.156,1.001,0.119,1.984,0.366,0.824,60.000,18985.000,1.000
4.661,-4.338,-5.259,0.933,-4.174,-0.875,-0.037,-6.443,-0.156,1.000,0.117,1.831,0.397,0.977,60.000,18986.000,1.000
9.244,-1.856,-2.634,2.602,-4.415,-0.386,-1.479,-7.225,-0.155,1.000,0.120,1.801,0.458,0.977,60.000,18987.000,1.000
14.858,1.359,0.708,5.098,-3.619,0.422,-2.345,-7.412,-0.156,0.999,0.122,1.587,0.610,1.068,60.000,18988.000,1.000
20.586,3.756,3.255,7.171,-2.787,0.304,-3.242,-7.941,-0.155,1.000,0.121,1.404,0.732,1.038,60.000,18989.000,1.000
25.603,4.498,4.612,8.695,-2.685,-1.079,-4.418,-8.577,-0.155,1.003,0.123,1.221,0.702,1.190,60.000,18990.000,1.000
29.401,3.760,5.348,10.219,-3.322,-2.950,-5.473,-8.437,-0.159,1.003,0.122,0.977,0.732,1.068,60.000,18991.000,1.000
31.820,2.182,5.879,11.729,-4.180,-4.385,-5.856,-7.333,-0.160,1.002,0.122,0.732,0.702,1.129,60.000,18992.000,1.000
33.025,0.452,6.015,12.568,-4.667,-4.949,-5.250,-5.907,-0.160,1.001,0.127,0.641,0.702,1.221,60.000,18993.000,1.000
33.277,-0.698,5.613,12.545,-4.301,-4.385,-3.521,-4.501,-0.159,1.002,0.127,0.580,0.580,1.343,60.000,18994.000,1.000
32.689,-0.680,5.117,12.439,-2.892,-2.392,-0.723,-2.633,-0.157,1.002,0.126,0.305,0.397,1.404,60.000,18995.000,1.000
31.330,0.438,5.097,13.037,-0.780,0.897,2.648,0.001,-0.158,1.004,0.125,0.000,0.458,1.434,60.000,18996.000,1.000
29.380,1.738,5.427,14.020,1.209,4.484,5.601,2.511,-0.159,1.002,0.128,-0.305,0.397,1.495,60.000,18997.000,1.000
26.961,2.057,5.280,14.245,2.264,7.050,7.305,3.519,-0.160,1.001,0.129,-0.336,0.336,1.678,60.000,18998.000,1.000
23.937,0.830,3.987,13.023,2.022,7.883,7.657,2.679,-0.158,1.000,0.130,-0.458,0.244,1.648,60.000,18999.000,1.000
19.844,-1.873,1.488,10.630,0.405,6.901,6.820,0.811,-0.158,1.000,0.132,-0.671,0.000,1.740,60.000,19000.000,1.000
14.014,-5.935,-2.084,7.532,-2.651,4.037,4.559,-1.388,-0.154,1.000,0.133,-0.793,0.000,1.862,60.000,19001.000,1.000
5.992,-11.369,-6.801,3.567,-7.048,-0.851,0.508,-4.250,-0.155,0.997,0.135,-1.007,-0.122,1.862,60.000,19002.000,1.000
-3.922,-17.906,-12.661,-1.819,-12.372,-7.489,-5.182,-8.602,-0.154,0.996,0.133,-1.160,-0.183,1.801,60.000,19003.000,1.000
-14.594,-24.730,-19.040,-8.587,-18.064,-14.952,-11.790,-14.560,-0.151,0.992,0.134,-1.129,-0.214,1.831,60.000,19004.000,1.000
-24.540,-30.661,-24.601,-15.578,-23.529,-21.986,-18.365,-20.942,-0.149,0.990,0.136,-1.160,-0.244,1.831,60.000,19005.000,1.000
-32.483,-34.546,-28.003,-21.222,-28.020,-27.508,-23.897,-26.009,-0.148,0.988,0.134,-1.099,-0.305,1.862,60.000,19006.000,1.000
-37.685,-35.671,-28.761,-24.711,-30.656,-30.903,-27.439,-28.760,-0.146,0.988,0.134,-1.038,-0.366,1.862,60.000,19007.000,1.000
-40.112,-34.028,-27.357,-26.223,-30.775,-32.000,-28.426,-29.336,-0.147,0.987,0.136,-0.732,-0.275,1.923,60.000,19008.000,1.000
-40.375,-30.329,-24.666,-26.149,-28.470,-30.924,-27.022,-28.369,-0.145,0.989,0.138,-0.732,-0.366,1.984,60.000,19009.000,1.000
-39.515,-25.802,-21.511,-24.683,-24.795,-28.112,-24.185,-26.424,-0.146,0.989,0.139,-0.641,-0.427,2.045,60.000,19010.000,1.000
-38.737,-21.841,-18.701,-22.371,-21.374,-24.488,-21.361,-24.233,-0.146,0.991,0.144,-0.488,-0.458,2.045,60.000,19011.000,1.000
-38.882,-19.522,-17.086,-20.486,-19.535,-21.341,-19.892,-22.917,-0.146,0.994,0.144,-0.519,-0.397,1.953,60.000,19012.000,1.000
-39.866,-19.091,-17.108,-20.167,-19.564,-19.580,-20.327,-23.301,-0.145,0.994,0.145,-0.580,-0.488,2.014,60.000,19013.000,1.000
-40.788,-19.795,-18.283,-21.188,-20.620,-18.913,-22.005,-24.891,-0.146,0.997,0.147,-0.580,-0.519,1.984,60.000,19014.000,1.000
-40.772,-20.368,-19.444,-22.047,-21.402,-17.973,-23.364,-25.976,-0.148,0.996,0.152,-0.580,-0.641,1.892,60.000,19015.000,1.000
-39.729,-19.956,-19.767,-21.515,-21.074,-15.613,-23.019,-25.076,-0.147,0.997,0.150,-0.854,-0.671,1.831,60.000,19016.000,1.000
-38.283,-18.652,-19.445,-19.843,-19.661,-12.022,-20.713,-22.228,-0.149,0.999,0.152,-0.946,-0.824,1.801,60.000,19017.000,1.000
-37.038,-17.050,-19.186,-18.173,-17.630,-8.333,-17.193,-18.638,-0.149,1.000,0.154,-0.946,-0.946,1.709,60.000,19018.000,1.000
-36.169,-15.547,-19.291,-17.115,-15.379,-5.440,-13.395,-15.337,-0.149,1.000,0.156,-1.007,-1.190,1.617,60.000,19019.000,1.000
-35.679,-14.283,-19.511,-16.358,-13.241,-3.574,-10.028,-12.631,-0.149,1.000,0.160,-1.099,-1.373,1.617,60.000,19020.000,1.000
-35.527,-13.318,-19.491,-15.419,-11.454,-2.553,-7.422,-10.557,-0.148,0.998,0.159,-1.190,-1.648,1.495,60.000,19021.000,1.000
-35.364,-12.445,-18.994,-14.255,-9.794,-1.844,-5.315,-9.234,-0.147,0.999,0.160,-1.190,-1.862,1.373,60.000,19022.000,1.000
-34.662,-11.215,-17.945,-13.185,-7.740,-0.899,-3.289,-8.776,-0.150,0.998,0.159,-1.221,-1.953,1.190,60.000,19023.000,1.000
-33.393,-9.546,-16.628,-12.486,-5.389,0.090,-1.790,-9.196,-0.149,1.000,0.156,-1.282,-2.106,1.129,60.000,19024.000,1.000
-32.185,-7.981,-15.601,-12.124,-3.692,0.277,-1.984,-10.283,-0.148,0.999,0.160,-1.434,-2.289,1.068,60.000,19025.000,1.000
-31.527,-7.046,-15.180,-11.824,-3.338,-0.687,-4.214,-11.473,-0.145,0.999,0.158,-1.434,-2.502,0.916,60.000,19026.000,1.000
-31.105,-6.575,-15.130,-11.387,-3.772,-2.003,-7.108,-12.004,-0.143,0.998,0.158,-1.343,-2.716,0.732,60.000,19027.000,1.000
-30.029,-5.737,-14.749,-10.686,-3.537,-2.207,-8.362,-11.124,-0.145,0.996,0.158,-1.282,-2.686,0.610,60.000,19028.000,1.000
-27.567,-3.583,-13.140,-9.267,-1.421,-0.034,-6.199,-8.100,-0.145,0.995,0.159,-1.221,-2.777,0.458,60.000,19029.000,1.000
-23.870,0.085,-9.884,-6.601,2.469,4.666,-0.613,-2.687,-0.145,0.996,0.162,-1.099,-2.716,0.427,60.000,19030.000,1.000
-20.421,3.880,-6.087,-3.359,6.301,10.148,6.113,3.766,-0.146,0.997,0.163,-0.977,-2.930,0.366,60.000,19031.000,1.000
-19.564,5.113,-4.434,-1.981,7.354,13.219,10.388,8.128,-0.146,0.997,0.166,-0.854,-2.960,0.244,60.000,19032.000,1.000
-22.948,1.680,-7.327,-4.999,3.877,11.367,9.626,7.433,-0.145,0.995,0.167,-0.702,-3.052,0.153,60.000,19033.000,1.000
-30.076,-6.020,-14.659,-12.516,-3.567,4.805,4.006,1.458,-0.145,0.995,0.165,-0.488,-2.991,0.061,60.000,19034.000,1.000
-38.399,-15.106,-23.585,-21.670,-12.433,-3.625,-3.861,-6.818,-0.142,0.995,0.165,-0.366,-2.991,0.092,60.000,19035.000,1.000
-44.879,-22.109,-30.506,-28.734,-19.728,-10.494,-10.799,-13.452,-0.142,0.996,0.166,-0.305,-3.113,-0.031,60.000,19036.000,1.000
-47.664,-25.008,-33.367,-31.729,-23.544,-13.920,-14.818,-16.238,-0.142,0.998,0.160,-0.183,-3.113,0.061,60.000,19037.000,1.000
-46.651,-23.903,-32.348,-31.083,-23.693,-14.128,-15.671,-15.450,-0.143,0.997,0.164,-0.031,-3.052,0.122,60.000,19038.000,1.000
-42.901,-20.137,-28.759,-28.173,-21.195,-12.339,-14.173,-12.449,-0.141,0.997,0.164,0.153,-3.052,0.061,60.000,19039.000,1.000
-37.730,-15.027,-23.709,-23.810,-17.236,-9.393,-11.161,-8.126,-0.138,0.997,0.165,0.366,-2.930,0.214,60.000,19040.000,1.000
-32.255,-9.484,-17.906,-18.331,-12.614,-5.556,-7.174,-2.853,-0.142,1.000,0.166,0.580,-2.747,0.305,60.000,19041.000,1.000
-27.418,-4.369,-12.276,-12.624,-7.918,-1.277,-2.870,2.555,-0.143,1.002,0.166,0.641,-2.655,0.305,60.000,19042.000,1.000
-23.965,-0.568,-8.035,-8.195,-3.789,2.535,0.839,6.669,-0.144,1.001,0.167,0.702,-2.747,0.336,60.000,19043.000,1.000
-22.183,1.511,-5.862,-5.972,-0.788,5.230,3.324,8.481,-0.146,1.001,0.164,0.793,-2.655,0.336,60.000,19044.000,1.000
-21.736,2.229,-5.318,-5.537,0.875,7.010,4.666,8.260,-0.147,1.003,0.165,0.793,-2.563,0.336,60.000,19045.000,1.000
-21.897,2.270,-5.421,-5.902,1.323,8.330,5.239,6.987,-0.147,1.002,0.164,0.916,-2.502,0.397,60.000,19046.000,1.000
-21.973,1.980,-5.637,-6.767,0.787,8.931,4.992,5.164,-0.148,1.002,0.164,1.129,-2.472,0.458,60.000,19047.000,1.000
-21.572,1.338,-6.064,-8.538,-0.479,8.049,3.553,2.647,-0.146,0.999,0.165,1.312,-2.441,0.397,60.000,19048.000,1.000
-20.578,0.457,-6.715,-11.200,-2.064,5.641,1.053,-0.404,-0.147,0.998,0.165,1.312,-2.472,0.427,60.000,19049.000,1.000
-18.892,-0.061,-6.959,-13.628,-3.295,3.002,-1.470,-2.981,-0.148,1.000,0.165,1.343,-2.380,0.275,60.000,19050.000,1.000
-16.288,0.617,-5.869,-14.333,-3.371,1.901,-2.632,-3.904,-0.149,0.998,0.164,1.526,-2.380,0.275,60.000,19051.000,1.000
-12.607,2.932,-3.065,-12.739,-1.747,3.238,-1.605,-2.866,-0.149,0.999,0.164,1.678,-2.350,0.305,60.000,19052.000,1.000
-7.992,6.685,1.005,-9.418,1.559,6.630,1.417,-0.563,-0.148,0.998,0.165,1.862,-2.319,0.336,60.000,19053.000,1.000
-2.935,11.261,5.552,-5.275,5.883,11.003,5.313,2.041,-0.150,0.999,0.166,1.953,-2.228,0.366,60.000,19054.000,1.000
1.844,15.877,9.942,-0.939,10.136,15.317,8.613,4.308,-0.149,0.996,0.167,2.075,-2.167,0.366,60.000,19055.000,1.000
5.686,19.754,13.736,3.084,13.335,18.857,10.318,5.921,-0.148,0.997,0.164,2.228,-2.014,0.366,60.000,19056.000,1.000
8.301,22.315,16.518,6.130,15.159,21.197,10.425,6.654,-0.150,0.998,0.159,2.441,-2.045,0.366,60.000,19057.000,1.000
9.812,23.351,17.963,7.615,15.960,22.144,9.738,6.476,-0.150,0.997,0.161,2.686,-1.953,0.458,60.000,19058.000,1.000
10.612,23.135,18.166,7.715,16.304,21.842,9.216,5.946,-0.147,0.993,0.160,2.869,-1.892,0.488,60.000,19059.000,1.000
11.205,22.351,17.754,7.530,16.595,20.892,9.540,6.175,-0.147,0.993,0.161,2.991,-1.862,0.519,60.000,19060.000,1.000
11.983,21.694,17.412,8.127,17.011,20.088,11.010,7.947,-0.145,0.993,0.160,3.296,-1.740,0.763,60.000,19061.000,1.000
12.960,21.317,17.221,9.352,17.434,19.660,13.309,10.753,-0.141,0.991,0.158,3.387,-1.678,0.824,60.000,19062.000,1.000
13.689,20.674,16.626,9.959,17.398,18.868,15.323,12.973,-0.140,0.993,0.156,3.540,-1.495,0.732,60.000,19063.000,1.000
13.615,19.134,15.240,9.112,16.429,16.817,15.815,13.311,-0.137,0.992,0.156,3.723,-1.343,0.763,60.000,19064.000,1.000
12.697,16.859,13.574,7.493,14.660,13.669,14.500,11.978,-0.137,0.991,0.154,3.967,-1.007,0.916,60.000,19065.000,1.000
11.600,14.786,12.680,6.588,12.877,10.567,12.167,10.180,-0.138,0.990,0.151,4.120,-0.732,1.007,60.000,19066.000,1.000
11.187,13.709,13.007,7.034,11.840,8.404,9.824,8.669,-0.141,0.989,0.150,4.425,-0.427,0.946,60.000,19067.000,1.000
11.955,13.690,13.997,8.187,11.711,7.221,8.112,7.341,-0.141,0.990,0.151,4.608,-0.153,0.885,60.000,19068.000,1.000
13.904,14.366,14.915,9.235,12.188,6.776,7.376,6.173,-0.141,0.991,0.149,4.639,0.031,0.824,60.000,19069.000,1.000
16.644,15.441,15.679,10.142,12.937,7.091,7.792,5.850,-0.139,0.990,0.147,4.883,0.183,0.641,60.000,19070.000,1.000
19.500,16.651,16.600,11.250,13.806,8.205,9.243,7.089,-0.140,0.990,0.148,4.822,0.336,0.702,60.000,19071.000,1.000
21.732,17.497,17.606,12.369,14.745,9.685,11.232,9.647,-0.139,0.992,0.145,4.883,0.427,0.610,60.000,19072.000,1.000
22.907,17.496,18.232,12.865,15.741,10.879,13.185,12.478,-0.139,0.995,0.146,4.944,0.610,0.458,60.000,19073.000,1.000
23.215,16.823,18.422,12.695,16.875,11.715,14.894,14.852,-0.140,0.995,0.145,5.127,0.702,0.397,60.000,19074.000,1.000
23.241,16.298,18.771,12.707,18.147,12.751,16.412,16.767,-0.138,0.996,0.141,5.157,0.824,0.397,60.000,19075.000,1.000
23.399,16.540,19.740,13.532,19.189,14.288,17.593,18.181,-0.137,1.000,0.142,5.066,0.885,0.427,60.000,19076.000,1.000
23.782,17.471,21.059,14.689,19.543,16.001,18.227,18.575,-0.138,1.004,0.142,5.066,0.946,0.397,60.000,19077.000,1.000
24.463,18.677,22.116,15.171,19.204,17.532,18.439,17.510,-0.138,1.007,0.143,4.944,1.251,0.366,60.000,19078.000,1.000
25.469,19.756,22.525,14.507,18.449,18.755,18.348,15.170,-0.140,1.006,0.146,4.852,1.373,0.366,60.000,19079.000,1.000
26.463,20.210,22.178,12.999,17.265,19.394,17.526,12.235,-0.141,1.009,0.145,4.639,1.434,0.214,60.000,19080.000,1.000
26.878,19.535,21.079,11.125,15.423,18.985,15.435,9.387,-0.142,1.009,0.143,4.517,1.556,0.153,60.000,19081.000,1.000
26.532,17.685,19.370,9.070,13.106,17.399,12.287,6.967,-0.143,1.007,0.144,4.272,1.587,0.183,60.000,19082.000,1.000
25.924,15.334,17.494,6.933,11.072,15.156,9.108,5.044,-0.145,1.004,0.143,4.120,1.526,0.061,60.000,19083.000,1.000
25.861,13.559,16.212,5.256,10.085,13.193,6.987,3.789,-0.148,1.001,0.143,3.967,1.556,0.092,60.000,19084.000,1.000
26.884,13.204,16.291,5.004,10.367,12.357,6.383,3.607,-0.149,1.000,0.141,3.998,1.556,-0.031,60.000,19085.000,1.000
28.968,14.332,17.866,6.715,11.541,12.878,6.975,4.654,-0.147,0.999,0.139,3.937,1.465,-0.183,60.000,19086.000,1.000
31.522,16.162,20.066,9.659,12.926,14.154,7.980,6.303,-0.148,0.997,0.142,3.967,1.373,-0.275,60.000,19087.000,1.000
33.677,17.674,21.552,12.255,13.901,15.223,8.675,7.507,-0.149,0.995,0.141,3.876,1.312,-0.336,60.000,19088.000,1.000
34.728,18.430,21.626,13.518,14.185,15.616,8.808,7.853,-0.150,0.992,0.138,4.028,1.160,-0.519,60.000,19089.000,1.000
34.431,18.729,20.689,13.835,13.896,15.704,8.639,7.984,-0.152,0.994,0.140,3.998,1.068,-0.641,60.000,19090.000,1.000
32.947,18.997,19.555,14.127,13.372,16.147,8.659,8.768,-0.152,0.993,0.138,4.089,1.007,-0.702,60.000,19091.000,1.000
30.618,19.198,18.572,14.600,12.950,17.098,9.228,10.224,-0.152,0.993,0.136,4.242,0.916,-0.671,60.000,19092.000,1.000
27.754,18.910,17.563,14.694,12.780,18.017,10.274,11.492,-0.152,0.993,0.137,4.272,0.824,-0.702,60.000,19093.000,1.000
24.673,17.839,16.365,14.012,12.636,18.189,11.253,11.752,-0.153,0.995,0.134,4.303,0.702,-0.793,60.000,19094.000,1.000
21.955,16.112,15.059,12.821,11.900,17.225,11.378,10.821,-0.152,0.994,0.134,4.395,0.549,-1.007,60.000,19095.000,1.000
20.426,14.162,13.817,11.618,10.084,15.187,10.111,8.952,-0.153,0.994,0.130,4.517,0.549,-1.007,60.000,19096.000,1.000
20.578,12.505,12.770,10.542,7.535,12.555,7.688,6.535,-0.151,0.992,0.129,4.486,0.427,-1.160,60.000,19097.000,1.000
22.065,11.531,11.952,9.377,5.297,10.014,5.048,4.050,-0.151,0.992,0.129,4.425,0.305,-1.312,60.000,19098.000,1.000
23.955,11.404,11.400,8.141,4.267,8.232,3.205,2.138,-0.152,0.993,0.125,4.425,0.153,-1.404,60.000,19099.000,1.000
25.462,12.106,11.380,7.452,4.688,7.756,2.789,1.549,-0.150,0.993,0.127,4.517,-0.031,-1.495,60.000,19100.000,1.000
26.277,13.303,12.130,7.889,6.138,8.612,3.815,2.572,-0.152,0.994,0.125,4.547,-0.031,-1.556,60.000,19101.000,1.000
26.357,14.180,13.278,8.995,7.714,9.899,5.587,4.400,-0.151,0.995,0.119,4.608,-0.031,-1.617,60.000,19102.000,1.000
25.860,13.930,14.053,9.632,8.576,10.369,7.112,5.661,-0.148,0.994,0.119,4.608,-0.153,-1.617,60.000,19103.000,1.000
25.344,12.663,14.309,9.540,8.643,9.705,7.945,5.926,-0.146,0.993,0.115,4.669,-0.061,-1.617,60.000,19104.000,1.000
25.457,11.383,14.782,9.826,8.542,8.781,8.441,6.169,-0.145,0.993,0.112,4.639,0.000,-1.801,60.000,19105.000,1.000
26.001,10.724,15.881,11.328,8.675,8.340,8.952,7.317,-0.143,0.992,0.110,4.669,0.092,-1.831,60.000,19106.000,1.000
25.725,10.064,16.680,13.109,8.589,7.825,9.056,8.757,-0.141,0.993,0.106,4.669,0.122,-1.953,60.000,19107.000,1.000
23.454,8.291,15.767,13.317,7.542,6.016,7.950,8.914,-0.139,0.993,0.102,4.822,0.275,-2.075,60.000,19108.000,1.000
19.278,5.212,12.914,11.354,5.467,2.580,5.450,7.085,-0.138,0.993,0.102,4.913,0.488,-2.014,60.000,19109.000,1.000
14.448,1.808,9.405,8.515,3.065,-1.462,2.257,4.145,-0.139,0.992,0.099,5.005,0.671,-2.106,60.000,19110.000,1.000
10.454,-0.712,6.831,6.582,1.213,-4.655,-0.560,1.502,-0.139,0.994,0.098,4.944,0.946,-2.289,60.000,19111.000,1.000
8.351,-1.770,5.951,6.310,0.604,-6.133,-2.063,-0.064,-0.139,0.994,0.098,4.822,1.129,-2.472,60.000,19112.000,1.000
8.435,-1.480,6.547,7.291,1.627,-5.869,-1.705,-0.436,-0.140,0.997,0.096,4.822,1.373,-2.594,60.000,19113.000,1.000
10.106,-0.295,7.901,8.783,4.100,-4.322,0.447,0.399,-0.140,1.000,0.092,4.883,1.648,-2.625,60.000,19114.000,1.000
12.072,1.209,9.255,10.280,7.105,-2.115,3.632,2.437,-0.143,1.003,0.091,4.639,1.862,-2.808,60.000,19115.000,1.000
12.974,2.356,9.931,11.328,9.366,0.019,6.700,5.177,-0.142,1.006,0.095,4.395,2.045,-2.960,60.000,19116.000,1.000
12.075,2.454,9.303,11.135,9.954,1.258,8.599,7.366,-0.143,1.010,0.097,4.303,2.289,-2.838,60.000,19117.000,1.000
9.546,1.087,6.998,8.878,8.663,0.905,8.732,7.587,-0.143,1.011,0.096,4.059,2.258,-2.960,60.000,19118.000,1.000
6.240,-1.585,3.371,4.653,5.873,-1.235,7.046,5.351,-0.144,1.013,0.095,3.784,2.380,-2.930,60.000,19119.000,1.000
3.224,-4.809,-0.420,-0.134,2.233,-4.654,3.951,1.567,-0.147,1.016,0.094,3.510,2.563,-2.960,60.000,19120.000,1.000
1.327,-7.617,-3.144,-3.682,-1.479,-8.372,0.265,-2.188,-0.147,1.018,0.096,3.235,2.716,-2.930,60.000,19121.000,1.000
0.843,-9.441,-4.358,-5.180,-4.510,-11.462,-2.972,-4.840,-0.150,1.018,0.099,3.052,2.808,-3.021,60.000,19122.000,1.000
1.513,-10.384,-4.539,-5.142,-6.438,-13.465,-5.002,-6.272,-0.154,1.017,0.100,2.655,2.777,-2.930,60.000,19123.000,1.000
2.713,-10.953,-4.436,-4.478,-7.395,-14.416,-5.765,-6.797,-0.154,1.014,0.103,2.350,2.838,-2.869,60.000,19124.000,1.000
3.635,-11.628,-4.496,-3.669,-7.950,-14.601,-5.806,-6.575,-0.156,1.014,0.102,2.045,2.686,-2.960,60.000,19125.000,1.000
3.599,-12.583,-4.804,-2.845,-8.599,-14.313,-5.716,-5.661,-0.157,1.015,0.103,1.801,2.625,-3.021,60.000,19126.000,1.000
2.540,-13.571,-5.225,-2.177,-9.233,-13.708,-5.608,-4.295,-0.156,1.017,0.102,1.465,2.594,-2.808,60.000,19127.000,1.000
1.113,-14.082,-5.438,-1.823,-9.217,-12.809,-5.158,-2.830,-0.158,1.015,0.105,1.251,2.472,-2.747,60.000,19128.000,1.000
0.217,-13.597,-4.869,-1.456,-7.936,-11.510,-4.055,-1.297,-0.158,1.013,0.106,0.916,2.411,-2.594,60.000,19129.000,1.000
0.417,-11.816,-2.911,-0.236,-5.280,-9.647,-2.357,0.663,-0.159,1.010,0.107,0.732,2.167,-2.533,60.000,19130.000,1.000
1.724,-8.880,0.505,2.362,-1.728,-7.277,-0.488,3.207,-0.160,1.008,0.104,0.305,2.136,-2.380,60.000,19131.000,1.000
3.810,-5.380,4.606,5.775,1.973,-4.823,1.101,5.789,-0.159,1.001,0.104,0.061,2.014,-2.289,60.000,19132.000,1.000
6.316,-2.053,8.214,8.701,5.163,-2.925,2.098,7.458,-0.158,1.000,0.107,0.000,1.892,-2.197,60.000,19133.000,1.000
8.899,0.566,10.536,10.277,7.351,-2.113,2.169,7.657,-0.159,0.999,0.105,-0.092,1.678,-2.106,60.000,19134.000,1.000
11.101,2.305,11.541,10.741,8.220,-2.494,1.017,6.665,-0.159,0.997,0.107,0.000,1.556,-2.106,60.000,19135.000,1.000
12.349,3.178,11.616,10.827,7.707,-3.739,-1.293,5.147,-0.161,0.998,0.107,-0.183,1.434,-2.075,60.000,19136.000,1.000
12.278,3.178,11.011,10.784,6.072,-5.434,-4.318,3.415,-0.163,0.999,0.112,-0.122,1.343,-2.136,60.000,19137.000,1.000
11.126,2.402,9.841,10.391,3.888,-7.269,-7.452,1.434,-0.166,1.004,0.109,-0.122,1.099,-2.014,60.000,19138.000,1.000
9.653,1.251,8.470,9.701,1.811,-8.924,-10.100,-0.580,-0.168,1.006,0.113,-0.336,0.916,-2.014,60.000,19139.000,1.000
8.461,0.140,7.386,9.161,0.120,-10.090,-11.894,-2.080,-0.171,1.010,0.114,-0.427,0.580,-1.923,60.000,19140.000,1.000
7.491,-0.995,6.564,8.874,-1.485,-10.821,-12.914,-2.842,-0.173,1.011,0.118,-0.763,0.122,-2.045,60.000,19141.000,1.000
6.303,-2.681,5.280,8.185,-3.487,-11.664,-13.575,-3.406,-0.175,1.012,0.120,-1.007,-0.214,-2.014,60.000,19142.000,1.000
4.792,-5.261,2.889,6.386,-5.913,-13.073,-14.166,-4.523,-0.176,1.015,0.126,-1.129,-0.641,-2.045,60.000,19143.000,1.000
3.347,-8.387,-0.385,3.706,-8.285,-14.834,-14.654,-6.264,-0.177,1.014,0.126,-1.434,-1.099,-2.045,60.000,19144.000,1.000
2.337,-11.329,-3.656,1.224,-10.215,-16.376,-15.017,-7.976,-0.179,1.016,0.127,-1.709,-1.465,-2.014,60.000,19145.000,1.000
1.732,-13.588,-6.226,-0.223,-11.763,-17.496,-15.488,-9.092,-0.179,1.017,0.134,-1.984,-1.892,-1.862,60.000,19146.000,1.000
1.311,-15.085,-7.997,-0.834,-13.103,-18.476,-16.281,-9.744,-0.178,1.016,0.136,-2.197,-2.411,-1.709,60.000,19147.000,1.000
0.956,-15.968,-9.222,-1.440,-14.191,-19.602,-17.274,-10.468,-0.179,1.017,0.137,-2.350,-2.747,-1.678,60.000,19148.000,1.000
0.634,-16.368,-10.004,-2.410,-14.866,-20.708,-18.076,-11.386,-0.178,1.013,0.138,-2.502,-3.052,-1.587,60.000,19149.000,1.000
0.337,-16.186,-10.003,-3.100,-14.934,-21.051,-18.198,-11.818,-0.178,1.012,0.141,-2.625,-3.357,-1.465,60.000,19150.000,1.000
0.181,-15.056,-8.628,-2.509,-14.021,-19.725,-17.131,-10.879,-0.177,1.009,0.144,-2.747,-3.662,-1.251,60.000,19151.000,1.000
0.416,-12.795,-5.793,-0.519,-11.842,-16.554,-14.703,-8.585,-0.178,1.008,0.146,-2.594,-3.998,-1.038,60.000,19152.000,1.000
1.102,-10.129,-2.618,1.611,-9.036,-12.795,-11.713,-6.340,-0.179,1.005,0.144,-2.686,-4.333,-0.946,60.000,19153.000,1.000
1.791,-8.615,-0.947,2.261,-7.281,-10.567,-9.877,-5.952,-0.179,1.003,0.147,-2.625,-4.669,-0.793,60.000,19154.000,1.000
1.701,-9.425,-1.821,1.022,-8.006,-11.215,-10.562,-7.983,-0.177,0.998,0.149,-2.563,-4.883,-0.580,60.000,19155.000,1.000
0.325,-12.355,-4.611,-1.034,-11.063,-14.276,-13.550,-11.310,-0.176,0.993,0.151,-2.380,-5.035,-0.397,60.000,19156.000,1.000
-2.131,-16.095,-7.706,-2.590,-14.813,-18.051,-17.178,-14.250,-0.174,0.989,0.150,-1.923,-5.127,-0.183,60.000,19157.000,1.000
-4.878,-19.227,-9.808,-3.122,-17.403,-20.916,-19.596,-15.733,-0.173,0.984,0.148,-1.678,-5.371,-0.031,60.000,19158.000,1.000
-7.051,-20.899,-10.536,-2.739,-17.969,-22.049,-19.874,-15.456,-0.170,0.979,0.148,-1.190,-5.402,0.031,60.000,19159.000,1.000
-8.112,-20.853,-10.104,-1.502,-16.767,-21.249,-18.047,-13.383,-0.170,0.978,0.149,-0.763,-5.524,0.061,60.000,19160.000,1.000
-8.016,-19.264,-8.946,0.543,-14.516,-18.658,-14.563,-9.672,-0.169,0.976,0.147,-0.214,-5.585,0.183,60.000,19161.000,1.000
-7.243,-16.802,-7.775,2.694,-11.991,-15.001,-10.203,-5.203,-0.165,0.972,0.143,0.427,-5.432,0.214,60.000,19162.000,1.000
-6.624,-14.552,-7.502,3.608,-10.014,-11.683,-6.266,-1.612,-0.163,0.972,0.143,1.068,-5.371,0.244,60.000,19163.000,1.000
-6.912,-13.427,-8.629,2.447,-9.303,-9.970,-4.113,-0.175,-0.163,0.971,0.144,1.526,-5.249,0.183,60.000,19164.000,1.000
-8.341,-13.588,-10.744,-0.145,-10.048,-10.033,-4.238,-0.731,-0.157,0.972,0.141,1.953,-5.005,0.153,60.000,19165.000,1.000
-10.593,-14.594,-12.928,-2.615,-11.778,-11.073,-6.017,-2.048,-0.153,0.971,0.136,2.533,-4.730,0.092,60.000,19166.000,1.000
-13.179,-16.097,-14.747,-4.070,-13.751,-12.318,-8.344,-3.182,-0.152,0.974,0.134,2.991,-4.425,0.122,60.000,19167.000,1.000
-15.637,-18.020,-16.464,-4.799,-15.339,-13.487,-10.235,-4.009,-0.148,0.975,0.132,3.571,-3.967,0.000,60.000,19168.000,1.000
-17.365,-20.023,-18.197,-5.212,-16.047,-14.333,-10.937,-4.481,-0.146,0.977,0.132,4.028,-3.632,0.061,60.000,19169.000,1.000
-17.831,-21.360,-19.463,-5.047,-15.617,-14.371,-10.081,-4.158,-0.146,0.979,0.128,4.456,-3.113,0.000,60.000,19170.000,1.000
-17.164,-21.547,-19.818,-4.022,-14.315,-13.375,-7.977,-2.810,-0.145,0.983,0.125,4.913,-2.716,0.061,60.000,19171.000,1.000
-16.239,-20.902,-19.610,-2.802,-12.868,-11.848,-5.493,-1.092,-0.142,0.988,0.125,5.310,-2.167,0.061,60.000,19172.000,1.000
-16.004,-20.193,-19.772,-2.716,-12.027,-10.729,-3.531,-0.207,-0.141,0.990,0.123,5.432,-1.709,-0.031,60.000,19173.000,1.000
-16.757,-19.769,-20.815,-4.379,-12.084,-10.523,-2.500,-0.730,-0.142,0.991,0.119,5.646,-1.251,-0.061,60.000,19174.000,1.000
-18.002,-19.222,-22.171,-6.877,-12.664,-10.780,-2.096,-1.908,-0.142,0.992,0.117,5.798,-0.641,-0.153,60.000,19175.000,1.000
-18.888,-17.970,-22.749,-8.625,-12.975,-10.594,-1.612,-2.383,-0.144,0.993,0.120,5.859,-0.214,-0.122,60.000,19176.000,1.000
-18.793,-15.920,-22.028,-8.892,-12.327,-9.489,-0.480,-1.504,-0.144,0.994,0.118,6.042,0.031,-0.214,60.000,19177.000,1.000
-17.653,-13.434,-20.407,-8.198,-10.490,-7.638,1.487,0.343,-0.145,0.998,0.114,6.042,0.427,-0.244,60.000,19178.000,1.000
-15.943,-10.932,-18.624,-7.395,-7.793,-5.420,4.140,2.505,-0.145,0.997,0.114,5.859,0.916,-0.427,60.000,19179.000,1.000
-14.379,-8.740,-17.133,-6.769,-5.006,-3.138,7.024,4.745,-0.143,0.999,0.112,5.798,1.282,-0.427,60.000,19180.000,1.000
-13.526,-7.230,-16.091,-6.174,-2.966,-1.211,9.449,7.070,-0.146,1.001,0.112,5.615,1.678,-0.549,60.000,19181.000,1.000
-13.498,-6.754,-15.625,-5.702,-2.086,-0.222,10.821,9.192,-0.148,1.002,0.112,5.493,2.075,-0.641,60.000,19182.000,1.000
-13.915,-7.229,-15.766,-5.777,-2.131,-0.435,10.992,10.508,-0.149,1.000,0.112,5.402,2.319,-0.641,60.000,19183.000,1.000
-14.169,-7.951,-16.192,-6.477,-2.508,-1.378,10.281,10.743,-0.149,1.002,0.112,5.157,2.563,-0.671,60.000,19184.000,1.000
-13.802,-7.979,-16.276,-7.111,-2.725,-2.130,9.187,10.378,-0.151,1.004,0.111,4.913,2.655,-0.702,60.000,19185.000,1.000
-12.644,-6.728,-15.541,-6.773,-2.507,-1.980,8.159,10.234,-0.150,1.004,0.106,4.730,2.838,-0.702,60.000,19186.000,1.000
-10.753,-4.336,-14.081,-5.350,-1.731,-0.919,7.468,10.593,-0.153,1.005,0.108,4.517,3.082,-0.641,60.000,19187.000,1.000
-8.426,-1.661,-12.518,-3.788,-0.574,0.352,7.035,10.852,-0.152,1.006,0.108,4.150,3.143,-0.610,60.000,19188.000,1.000
-6.339,0.017,-11.596,-3.307,0.174,0.766,6.245,9.985,-0.151,1.006,0.111,3.967,3.357,-0.610,60.000,19189.000,1.000
-5.484,-0.466,-11.806,-4.528,-0.729,-0.615,4.106,7.272,-0.154,1.007,0.109,3.510,3.387,-0.610,60.000,19190.000,1.000
-6.491,-3.439,-13.158,-7.223,-3.976,-3.982,0.056,2.777,-0.154,1.007,0.107,3.204,3.418,-0.519,60.000,19191.000,1.000
-8.851,-7.961,-15.130,-10.625,-8.760,-8.440,-5.199,-2.593,-0.153,1.007,0.109,2.869,3.510,-0.519,60.000,19192.000,1.000
-11.110,-12.265,-16.900,-13.829,-13.126,-12.388,-9.917,-7.477,-0.154,1.007,0.111,2.502,3.540,-0.397,60.000,19193.000,1.000
-11.996,-14.795,-17.702,-15.989,-15.400,-14.356,-12.531,-10.605,-0.157,1.008,0.109,2.136,3.601,-0.366,60.000,19194.000,1.000
-11.331,-14.967,-17.130,-16.493,-15.244,-13.684,-12.603,-11.286,-0.158,1.006,0.110,1.801,3.571,-0.275,60.000,19195.000,1.000
-9.958,-13.296,-15.475,-15.409,-13.631,-10.909,-10.938,-9.912,-0.159,1.007,0.109,1.587,3.540,-0.153,60.000,19196.000,1.000
-8.928,-10.971,-13.790,-13.791,-12.023,-7.613,-9.016,-8.052,-0.160,1.007,0.110,1.129,3.326,-0.183,60.000,19197.000,1.000
-8.613,-8.983,-13.105,-12.976,-11.288,-5.348,-7.947,-7.425,-0.159,1.005,0.112,0.916,3.174,-0.122,60.000,19198.000,1.000
-8.418,-7.389,-13.315,-13.261,-11.150,-4.326,-7.680,-8.370,-0.159,1.002,0.113,0.519,3.082,-0.061,60.000,19199.000,1.000
-7.326,-5.463,-13.164,-13.521,-10.661,-3.440,-7.369,-9.544,-0.162,1.002,0.113,0.275,2.930,0.092,60.000,19200.000,1.000
-4.771,-2.677,-11.507,-12.425,-9.195,-1.724,-6.456,-9.357,-0.163,1.001,0.115,-0.122,2.716,0.183,60.000,19201.000,1.000
-1.094,0.513,-8.432,-9.894,-6.976,0.445,-5.200,-7.539,-0.163,1.000,0.113,-0.336,2.472,0.183,60.000,19202.000,1.000
2.726,2.966,-5.017,-7.098,-4.759,1.792,-4.226,-5.201,-0.163,1.002,0.115,-0.671,2.228,0.244,60.000,19203.000,1.000
5.653,3.844,-2.250,-5.122,-3.176,1.564,-3.805,-3.524,-0.164,1.003,0.120,-1.007,2.136,0.305,60.000,19204.000,1.000
6.976,3.095,-0.429,-4.040,-2.519,0.095,-3.829,-2.787,-0.164,1.000,0.120,-1.129,1.892,0.336,60.000,19205.000,1.000
6.500,1.210,0.565,-3.355,-2.812,-1.840,-4.260,-2.647,-0.162,0.998,0.123,-1.434,1.770,0.305,60.000,19206.000,1.000
4.707,-1.043,0.861,-2.835,-3.638,-3.583,-5.026,-2.777,-0.160,0.996,0.122,-1.587,1.495,0.397,60.000,19207.000,1.000
2.623,-2.724,0.581,-2.595,-4.068,-4.512,-5.533,-2.911,-0.160,0.995,0.123,-1.831,1.251,0.458,60.000,19208.000,1.000
1.191,-3.075,0.018,-2.571,-3.309,-4.150,-4.953,-2.679,-0.160,0.994,0.125,-1.953,1.129,0.549,60.000,19209.000,1.000
0.755,-1.903,-0.307,-2.249,-1.361,-2.523,-3.081,-1.717,-0.161,0.992,0.124,-1.862,0.885,0.641,60.000,19210.000,1.000
1.149,0.460,0.178,-1.004,1.252,-0.126,-0.486,0.068,-0.159,0.989,0.125,-1.984,0.763,0.610,60.000,19211.000,1.000
2.040,3.345,1.644,1.210,4.080,2.416,2.137,2.291,-0.160,0.988,0.127,-2.014,0.549,0.641,60.000,19212.000,1.000
3.125,5.871,3.550,3.615,6.767,4.472,4.377,4.159,-0.160,0.987,0.128,-2.014,0.458,0.702,60.000,19213.000,1.000
4.210,7.312,5.096,5.285,8.806,5.475,5.936,4.987,-0.159,0.988,0.128,-1.740,0.366,0.763,60.000,19214.000,1.000
5.167,7.520,6.001,6.008,9.722,5.166,6.492,4.737,-0.157,0.988,0.133,-1.923,0.153,0.732,60.000,19215.000,1.000
5.927,6.841,6.609,6.269,9.499,3.777,5.960,3.924,-0.155,0.986,0.131,-1.770,0.061,0.732,60.000,19216.000,1.000
6.647,5.782,7.372,6.550,8.765,1.948,4.795,3.014,-0.154,0.985,0.129,-1.678,0.000,0.824,60.000,19217.000,1.000
7.744,4.827,8.494,6.953,8.451,0.469,3.857,2.123,-0.152,0.985,0.131,-1.526,-0.061,0.977,60.000,19218.000,1.000
9.574,4.404,9.961,7.475,9.095,-0.037,3.847,1.293,-0.149,0.985,0.132,-1.434,-0.122,1.007,60.000,19219.000,1.000
12.091,4.810,11.684,8.332,10.455,0.671,4.845,0.837,-0.147,0.986,0.134,-1.312,-0.122,0.977,60.000,19220.000,1.000
14.770,6.063,13.454,9.647,11.851,2.356,6.423,1.115,-0.147,0.987,0.130,-1.251,-0.153,1.068,60.000,19221.000,1.000
16.764,7.767,14.762,10.882,12.754,4.351,8.068,1.995,-0.144,0.989,0.131,-1.190,-0.031,1.160,60.000,19222.000,1.000
17.278,9.261,15.013,11.072,13.093,5.945,9.497,2.901,-0.145,0.990,0.131,-1.099,0.000,1.251,60.000,19223.000,1.000
15.972,9.993,14.054,9.825,13.116,6.866,10.657,3.490,-0.144,0.992,0.131,-1.129,0.122,1.312,60.000,19224.000,1.000
13.012,9.675,12.249,7.749,12.920,7.224,11.473,3.911,-0.143,0.991,0.131,-1.190,0.275,1.312,60.000,19225.000,1.000
8.869,8.202,9.969,5.708,12.207,7.071,11.715,4.273,-0.143,0.992,0.134,-1.038,0.397,1.221,60.000,19226.000,1.000
4.233,5.666,7.267,3.917,10.643,6.276,11.278,4.166,-0.144,0.993,0.130,-1.068,0.427,1.190,60.000,19227.000,1.000
0.022,2.494,4.190,2.021,8.338,4.825,10.440,3.012,-0.145,0.994,0.132,-1.099,0.580,1.221,60.000,19228.000,1.000
-2.875,-0.611,1.221,-0.095,5.767,2.955,9.545,0.767,-0.143,0.996,0.134,-1.068,0.671,1.251,60.000,19229.000,1.000
-4.066,-2.998,-0.808,-1.917,3.322,0.984,8.556,-1.882,-0.142,0.995,0.134,-1.068,0.793,1.099,60.000,19230.000,1.000
-3.819,-4.309,-1.283,-2.775,1.227,-0.811,7.237,-3.988,-0.141,0.996,0.133,-1.068,0.732,1.038,60.000,19231.000,1.000
-2.715,-4.504,-0.269,-2.571,-0.230,-2.207,5.673,-5.037,-0.142,0.997,0.133,-1.221,0.916,0.916,60.000,19232.000,1.000
-1.218,-3.748,1.594,-1.839,-0.696,-3.040,4.362,-5.176,-0.143,0.997,0.134,-1.190,1.038,0.977,60.000,19233.000,1.000
0.474,-2.221,3.704,-1.068,-0.034,-3.153,3.862,-4.716,-0.144,0.996,0.133,-1.190,1.068,0.916,60.000,19234.000,1.000
2.264,-0.070,5.894,-0.213,1.473,-2.410,4.367,-3.706,-0.144,0.997,0.134,-1.160,1.099,0.916,60.000,19235.000,1.000
3.902,2.458,8.154,0.897,3.278,-0.896,5.598,-2.211,-0.143,0.997,0.137,-1.221,1.068,0.854,60.000,19236.000,1.000
5.013,4.981,10.219,1.927,4.965,0.919,7.020,-0.776,-0.145,0.999,0.138,-1.373,1.129,0.793,60.000,19237.000,1.000
5.390,7.162,11.648,2.170,6.417,2.360,8.091,-0.246,-0.144,1.000,0.137,-1.404,1.099,0.763,60.000,19238.000,1.000
5.215,8.922,12.272,1.407,7.653,3.123,8.474,-0.985,-0.148,1.003,0.138,-1.465,1.038,0.702,60.000,19239.000,1.000
4.965,10.515,12.422,0.403,8.646,3.636,8.190,-2.403,-0.148,1.001,0.138,-1.526,0.916,0.549,60.000,19240.000,1.000
5.082,12.263,12.565,0.228,9.330,4.594,7.511,-3.475,-0.150,1.000,0.140,-1.556,0.885,0.580,60.000,19241.000,1.000
5.682,14.169,12.781,1.118,9.701,6.140,6.720,-3.663,-0.151,1.003,0.141,-1.648,0.671,0.580,60.000,19242.000,1.000
6.567,15.886,12.777,2.341,9.904,7.766,6.057,-3.108,-0.149,1.004,0.139,-1.770,0.671,0.458,60.000,19243.000,1.000
7.476,17.110,12.409,3.198,10.161,9.025,5.790,-2.017,-0.149,1.002,0.143,-1.740,0.580,0.427,60.000,19244.000,1.000
8.201,17.840,11.949,3.799,10.576,10.026,6.119,-0.231,-0.149,1.003,0.144,-1.862,0.519,0.336,60.000,19245.000,1.000
8.531,18.196,11.729,4.618,11.036,11.093,6.960,2.354,-0.148,1.003,0.143,-1.862,0.458,0.244,60.000,19246.000,1.000
8.283,18.140,11.654,5.578,11.367,12.202,7.926,5.174,-0.148,1.004,0.142,-1.953,0.366,0.153,60.000,19247.000,1.000
7.518,17.624,11.369,6.092,11.620,13.085,8.672,7.266,-0.148,1.003,0.141,-1.892,0.397,0.061,60.000,19248.000,1.000
6.694,17.073,10.994,6.133,12.232,13.949,9.392,8.415,-0.147,1.003,0.141,-1.923,0.366,0.122,60.000,19249.000,1.000
6.457,17.322,11.304,6.682,13.742,15.659,10.772,9.636,-0.147,1.002,0.140,-1.953,0.397,0.153,60.000,19250.000,1.000
6.891,18.583,12.608,8.450,15.989,18.536,13.003,11.859,-0.146,1.003,0.141,-2.045,0.305,0.031,60.000,19251.000,1.000
6.893,19.560,13.564,10.278,17.607,21.163,14.891,14.223,-0.146,1.003,0.139,-2.014,0.305,-0.031,60.000,19252.000,1.000
4.597,18.041,11.744,9.521,16.679,21.072,14.437,14.334,-0.144,1.004,0.142,-1.892,0.305,0.000,60.000,19253.000,1.000
-1.318,12.542,5.583,4.296,12.027,16.705,10.347,10.380,-0.145,1.003,0.142,-1.923,0.244,-0.061,60.000,19254.000,1.000
-10.441,3.547,-4.196,-4.711,4.069,8.676,3.024,2.829,-0.144,1.004,0.143,-1.892,0.244,-0.153,60.000,19255.000,1.000
-20.431,-6.496,-14.848,-14.563,-5.172,-0.538,-5.547,-5.836,-0.147,1.000,0.143,-1.801,0.305,-0.214,60.000,19256.000,1.000
-28.143,-14.503,-23.259,-22.114,-12.952,-8.173,-12.939,-12.913,-0.146,0.997,0.143,-1.678,0.519,-0.244,60.000,19257.000,1.000
-31.321,-18.418,-27.565,-25.746,-17.176,-12.627,-17.564,-16.996,-0.144,0.995,0.142,-1.495,0.458,-0.458,60.000,19258.000,1.000
-29.583,-17.938,-27.498,-25.410,-17.304,-13.603,-19.048,-17.972,-0.144,0.996,0.144,-1.312,0.458,-0.488,60.000,19259.000,1.000
-24.267,-14.183,-23.914,-21.851,-14.345,-11.575,-17.904,-16.331,-0.144,0.996,0.142,-1.129,0.641,-0.458,60.000,19260.000,1.000
-17.545,-8.946,-18.363,-16.302,-10.111,-7.595,-15.205,-12.952,-0.142,0.995,0.144,-0.977,0.793,-0.549,60.000,19261.000,1.000
-11.302,-3.923,-12.707,-10.465,-6.187,-3.205,-12.253,-9.115,-0.140,0.995,0.142,-0.671,0.824,-0.580,60.000,19262.000,1.000
-6.513,-0.132,-8.548,-6.041,-3.360,0.112,-10.122,-6.126,-0.140,0.993,0.145,-0.519,0.824,-0.610,60.000,19263.000,1.000
-3.478,2.146,-6.675,-3.915,-1.805,1.680,-9.270,-4.618,-0.141,0.991,0.147,-0.366,0.854,-0.671,60.000,19264.000,1.000
-2.318,3.040,-6.858,-3.783,-1.485,1.843,-9.460,-4.242,-0.142,0.989,0.143,-0.061,1.007,-0.824,60.000,19265.000,1.000
-3.027,2.745,-8.193,-4.726,-2.287,1.357,-10.129,-4.247,-0.142,0.990,0.142,0.122,1.099,-0.824,60.000,19266.000,1.000
-5.161,1.504,-9.759,-6.150,-3.903,0.618,-10.844,-4.384,-0.143,0.991,0.141,0.275,1.251,-0.854,60.000,19267.000,1.000
-7.680,-0.120,-10.862,-7.884,-5.704,-0.333,-11.371,-4.965,-0.144,0.992,0.144,0.519,1.312,-0.885,60.000,19268.000,1.000
-9.294,-1.215,-10.881,-9.483,-6.907,-1.275,-11.522,-6.048,-0.142,0.993,0.141,0.854,1.404,-0.916,60.000,19269.000,1.000
-9.204,-0.994,-9.345,-9.987,-7.035,-1.623,-11.104,-6.999,-0.143,0.992,0.138,1.160,1.495,-0.977,60.000,19270.000,1.000
-7.456,0.734,-6.287,-8.642,-6.082,-0.838,-9.966,-6.958,-0.141,0.994,0.138,1.282,1.648,-1.099,60.000,19271.000,1.000
-4.562,3.620,-2.297,-5.634,-4.130,1.240,-7.911,-5.508,-0.143,0.996,0.139,1.373,1.831,-1.129,60.000,19272.000,1.000
-1.128,7.135,1.867,-1.938,-1.046,4.514,-4.605,-2.763,-0.145,0.998,0.137,1.495,1.984,-1.099,60.000,19273.000,1.000
1.895,10.597,5.451,1.341,3.013,8.610,-0.009,0.849,-0.145,0.998,0.136,1.709,2.014,-1.160,60.000,19274.000,1.000
3.074,12.870,7.451,3.256,6.770,12.429,4.843,4.510,-0.144,0.998,0.135,1.892,2.106,-1.221,60.000,19275.000,1.000
1.368,12.630,6.816,3.070,8.264,14.309,8.118,7.043,-0.146,0.999,0.137,1.953,2.167,-1.160,60.000,19276.000,1.000
-2.801,9.498,3.505,0.680,6.701,13.318,8.778,7.657,-0.146,1.000,0.135,1.984,2.258,-1.129,60.000,19277.000,1.000
-7.619,4.723,-0.932,-2.991,3.419,10.159,7.475,6.605,-0.147,0.999,0.133,2.167,2.289,-1.190,60.000,19278.000,1.000
-10.942,0.488,-4.132,-6.236,0.677,6.631,5.709,4.960,-0.148,0.998,0.132,2.289,2.441,-1.221,60.000,19279.000,1.000
-11.325,-1.306,-4.214,-7.320,-0.072,4.514,4.614,3.956,-0.148,0.996,0.131,2.502,2.411,-1.190,60.000,19280.000,1.000
-8.656,0.139,-0.701,-5.500,1.241,4.670,4.497,4.272,-0.147,0.995,0.131,2.625,2.533,-1.282,60.000,19281.000,1.000
-4.189,4.139,5.124,-1.797,3.652,6.524,4.876,5.412,-0.147,0.993,0.128,2.594,2.533,-1.251,60.000,19282.000,1.000
0.247,8.891,10.863,1.561,5.892,8.481,4.898,6.019,-0.147,0.993,0.127,2.838,2.472,-1.312,60.000,19283.000,1.000
3.371,12.660,14.619,2.989,7.173,9.297,4.092,5.257,-0.150,0.993,0.126,2.960,2.533,-1.129,60.000,19284.000,1.000
4.907,14.726,16.133,2.750,7.516,9.054,2.800,3.729,-0.150,0.995,0.127,3.021,2.563,-1.160,60.000,19285.000,1.000
5.159,15.296,16.340,2.207,7.446,8.754,1.908,2.806,-0.151,0.997,0.125,3.082,2.472,-1.007,60.000,19286.000,1.000
4.398,14.822,15.974,2.141,7.415,9.176,2.194,3.190,-0.152,0.998,0.125,3.143,2.411,-1.038,60.000,19287.000,1.000
2.618,13.472,14.774,2.010,7.331,10.163,3.707,4.214,-0.152,1.000,0.125,3.143,2.289,-0.977,60.000,19288.000,1.000
-0.270,11.257,12.140,0.878,6.673,10.971,5.726,4.595,-0.154,1.002,0.124,3.113,2.289,-0.946,60.000,19289.000,1.000
-3.956,8.521,8.421,-1.164,5.180,11.126,7.382,3.837,-0.156,1.002,0.126,3.265,1.984,-0.977,60.000,19290.000,1.000
-7.560,5.990,5.122,-2.873,3.332,10.658,8.280,2.628,-0.156,1.004,0.127,3.052,2.014,-0.946,60.000,19291.000,1.000
-10.030,4.286,3.747,-3.136,2.058,9.704,8.523,1.824,-0.157,1.005,0.123,3.052,1.770,-0.946,60.000,19292.000,1.000
-10.649,3.712,4.697,-1.928,2.075,8.341,8.391,1.544,-0.157,1.004,0.123,2.899,1.617,-0.977,60.000,19293.000,1.000
-9.253,4.453,7.366,0.132,3.456,6.818,8.069,1.484,-0.156,1.006,0.123,2.747,1.495,-0.885,60.000,19294.000,1.000
-6.326,6.533,10.779,2.590,5.576,5.557,7.548,1.633,-0.156,1.007,0.121,2.472,1.434,-0.916,60.000,19295.000,1.000
-2.967,9.471,13.902,5.128,7.469,4.848,6.799,2.208,-0.155,1.009,0.123,2.441,1.190,-1.099,60.000,19296.000,1.000
-0.308,12.446,15.872,7.206,8.612,4.912,6.201,3.196,-0.153,1.009,0.123,2.228,1.007,-1.007,60.000,19297.000,1.000
1.219,14.866,16.390,8.289,9.354,6.032,6.528,4.275,-0.152,1.010,0.122,2.075,1.007,-0.916,60.000,19298.000,1.000
1.736,16.329,15.721,8.264,10.151,7.951,7.985,4.989,-0.153,1.010,0.122,1.923,0.854,-0.824,60.000,19299.000,1.000
1.239,16.234,14.239,7.409,10.553,9.337,9.423,4.903,-0.152,1.009,0.123,1.831,0.793,-0.824,60.000,19300.000,1.000
-0.395,14.085,12.200,6.039,9.566,8.601,9.186,3.780,-0.152,1.007,0.121,1.709,0.610,-0.793,60.000,19301.000,1.000
-2.855,10.178,9.795,4.254,6.932,5.321,6.743,1.712,-0.150,1.006,0.120,1.587,0.580,-0.763,60.000,19302.000,1.000
-5.268,5.716,7.244,2.047,3.604,0.710,3.182,-0.866,-0.151,1.004,0.120,1.495,0.610,-0.732,60.000,19303.000,1.000
-6.773,2.165,4.877,-0.283,0.949,-3.191,0.219,-3.198,-0.150,1.003,0.122,1.343,0.641,-0.671,60.000,19304.000,1.000
-7.131,0.462,3.183,-1.933,-0.225,-4.740,-1.001,-4.354,-0.150,1.002,0.123,1.434,0.519,-0.763,60.000,19305.000,1.000
-6.688,0.658,2.685,-2.039,0.178,-3.480,-0.269,-3.638,-0.149,1.002,0.120,1.251,0.488,-0.702,60.000,19306.000,1.000
-5.950,2.022,3.524,-0.504,1.878,-0.187,1.967,-1.126,-0.147,1.002,0.119,1.160,0.549,-0.610,60.000,19307.000,1.000
-5.288,3.538,5.165,1.749,4.388,3.757,4.996,2.217,-0.146,1.001,0.119,1.129,0.549,-0.610,60.000,19308.000,1.000
-4.839,4.545,6.743,3.556,6.957,7.186,8.001,5.133,-0.147,1.002,0.121,1.251,0.488,-0.549,60.000,19309.000,1.000
-4.609,4.889,7.557,4.332,8.517,9.435,9.947,6.699,-0.147,1.000,0.124,1.099,0.641,-0.488,60.000,19310.000,1.000
-4.680,4.575,7.155,4.002,8.024,10.167,9.811,6.462,-0.148,0.999,0.125,1.190,0.580,-0.427,60.000,19311.000,1.000
-5.182,3.607,5.261,2.525,5.226,9.395,7.382,4.386,-0.148,0.999,0.121,1.007,0.671,-0.519,60.000,19312.000,1.000
-6.125,2.148,1.889,-0.122,1.013,7.594,3.680,0.946,-0.149,0.997,0.123,1.190,0.641,-0.549,60.000,19313.000,1.000
-7.358,0.620,-2.398,-3.410,-3.083,5.618,0.356,-2.751,-0.150,0.996,0.125,1.160,0.671,-0.641,60.000,19314.000,1.000
-8.702,-0.497,-6.489,-6.059,-5.818,4.286,-1.416,-5.283,-0.151,0.994,0.123,1.251,0.641,-0.610,60.000,19315.000,1.000
-10.064,-1.079,-9.317,-6.904,-6.885,3.751,-1.656,-5.806,-0.152,0.994,0.121,1.373,0.549,-0.610,60.000,19316.000,1.000
-11.405,-1.513,-10.613,-6.037,-6.833,3.392,-1.302,-4.776,-0.151,0.994,0.123,1.373,0.519,-0.671,60.000,19317.000,1.000
-12.659,-2.358,-10.962,-4.805,-6.441,2.519,-1.255,-3.600,-0.152,0.992,0.123,1.404,0.519,-0.824,60.000,19318.000,1.000
-13.650,-3.787,-11.010,-4.445,-6.162,1.088,-1.698,-3.347,-0.153,0.992,0.126,1.465,0.519,-0.824,60.000,19319.000,1.000
-14.046,-5.321,-10.680,-4.806,-5.933,-0.313,-2.202,-3.781,-0.152,0.991,0.123,1.495,0.610,-0.854,60.000,19320.000,1.000
-13.436,-6.087,-9.293,-4.603,-5.264,-1.001,-2.194,-3.775,-0.151,0.992,0.126,1.526,0.549,-0.854,60.000,19321.000,1.000
-11.638,-5.482,-6.488,-2.914,-3.590,-0.685,-1.316,-2.587,-0.150,0.996,0.125,1.648,0.458,-0.946,60.000,19322.000,1.000
-8.960,-3.666,-2.870,-0.119,-0.803,0.357,0.363,-0.548,-0.148,0.996,0.124,1.801,0.641,-1.007,60.000,19323.000,1.000
-6.064,-1.399,0.474,2.701,2.494,1.537,2.409,1.537,-0.148,0.993,0.124,1.770,0.641,-1.068,60.000,19324.000,1.000
-3.685,0.470,2.864,4.841,5.270,2.411,4.306,3.267,-0.149,0.993,0.122,1.740,0.732,-1.007,60.000,19325.000,1.000
-2.568,1.237,4.096,6.032,6.609,2.724,5.618,4.640,-0.149,0.993,0.123,1.892,0.702,-1.068,60.000,19326.000,1.000
-3.349,0.370,3.887,5.821,6.117,2.097,5.961,5.415,-0.149,0.994,0.127,2.014,0.854,-1.007,60.000,19327.000,1.000
-6.054,-2.303,1.747,3.542,3.918,0.018,4.997,4.901,-0.150,0.996,0.121,1.923,0.916,-0.977,60.000,19328.000,1.000
-9.723,-6.278,-2.357,-0.813,0.443,-3.605,2.659,2.640,-0.149,0.998,0.124,2.045,0.977,-1.068,60.000,19329.000,1.000
-12.858,-10.345,-7.346,-5.910,-3.573,-7.934,-0.558,-0.786,-0.150,0.997,0.122,2.075,1.068,-1.190,60.000,19330.000,1.000
-14.214,-13.044,-11.364,-9.672,-7.056,-11.496,-3.580,-3.944,-0.150,0.997,0.124,2.136,1.099,-1.221,60.000,19331.000,1.000
-13.186,-13.338,-12.898,-10.684,-8.837,-13.052,-5.158,-5.593,-0.152,0.996,0.124,2.289,1.129,-1.190,60.000,19332.000,1.000
-9.840,-11.111,-11.618,-8.946,-8.227,-12.285,-4.555,-5.445,-0.151,0.996,0.122,2.350,1.068,-1.160,60.000,19333.000,1.000
-4.895,-7.159,-8.309,-5.374,-5.521,-9.812,-2.064,-3.949,-0.153,0.997,0.121,2.289,1.129,-1.190,60.000,19334.000,1.000
0.390,-2.709,-4.196,-0.893,-1.871,-6.668,1.166,-1.634,-0.154,0.997,0.120,2.258,1.068,-1.129,60.000,19335.000,1.000
4.595,1.134,-0.405,3.752,1.394,-3.811,3.855,1.105,-0.154,0.996,0.122,2.136,1.129,-1.099,60.000,19336.000,1.000
6.862,3.763,2.268,7.698,3.508,-1.851,5.328,3.764,-0.154,0.999,0.123,2.228,1.068,-1.190,60.000,19337.000,1.000
7.435,5.320,3.602,10.168,4.655,-0.741,5.887,5.858,-0.155,1.000,0.122,2.167,1.099,-1.190,60.000,19338.000,1.000
7.380,6.552,4.106,11.170,5.624,0.223,6.432,7.334,-0.155,1.002,0.122,2.197,1.038,-1.251,60.000,19339.000,1.000
7.693,8.180,4.660,11.581,6.937,1.741,7.465,8.464,-0.155,1.002,0.122,2.167,0.885,-1.251,60.000,19340.000,1.000
8.637,10.268,5.787,12.266,8.323,3.747,8.512,9.235,-0.155,1.004,0.124,1.923,0.824,-1.251,60.000,19341.000,1.000
9.849,12.159,7.208,13.169,9.060,5.395,8.574,9.028,-0.155,1.006,0.124,1.831,0.885,-1.312,60.000,19342.000,1.000
10.949,13.122,8.276,13.532,8.812,5.928,7.169,7.199,-0.157,1.006,0.125,1.648,0.793,-1.404,60.000,19343.000,1.000
12.007,13.157,8.927,13.069,8.131,5.607,4.990,4.141,-0.157,1.004,0.126,1.495,0.702,-1.434,60.000,19344.000,1.000
13.264,12.896,9.802,12.432,7.924,5.552,3.414,1.359,-0.157,1.007,0.126,1.251,0.549,-1.404,60.000,19345.000,1.000
14.416,12.637,11.214,12.173,8.376,6.500,3.227,0.105,-0.155,1.006,0.123,1.129,0.549,-1.251,60.000,19346.000,1.000
14.517,11.820,12.348,11.666,8.666,7.920,3.951,0.169,-0.151,1.007,0.124,1.007,0.580,-1.221,60.000,19347.000,1.000
12.717,9.552,11.784,9.593,7.725,8.408,4.345,0.296,-0.154,1.007,0.122,0.793,0.549,-1.068,60.000,19348.000,1.000
8.966,5.491,8.789,5.516,5.133,6.834,3.462,-0.312,-0.152,1.003,0.124,0.702,0.549,-0.946,60.000,19349.000,1.000
4.110,0.336,4.144,0.760,1.480,3.341,1.466,-1.098,-0.153,1.003,0.125,0.519,0.549,-0.824,60.000,19350.000,1.000
-0.459,-4.399,-0.277,-2.406,-1.868,-0.570,-0.380,-0.764,-0.153,1.000,0.125,0.549,0.671,-0.763,60.000,19351.000,1.000
-3.406,-7.255,-2.818,-2.599,-3.514,-3.079,-0.651,1.323,-0.153,0.998,0.128,0.458,0.702,-0.732,60.000,19352.000,1.000
-4.093,-7.776,-3.002,-0.359,-2.922,-3.359,1.137,4.445,-0.152,0.996,0.127,0.305,0.763,-0.610,60.000,19353.000,1.000
-2.896,-6.721,-1.419,2.609,-0.787,-1.970,4.211,7.241,-0.154,0.992,0.126,0.458,0.732,-0.610,60.000,19354.000,1.000
-0.924,-5.378,0.979,4.951,1.461,-0.170,7.116,8.923,-0.154,0.992,0.127,0.427,0.854,-0.519,60.000,19355.000,1.000
0.636,-4.756,3.339,6.243,2.595,1.007,8.636,9.579,-0.156,0.994,0.125,0.610,0.763,-0.580,60.000,19356.000,1.000
1.034,-5.240,4.891,6.392,2.247,1.149,8.400,9.498,-0.156,0.990,0.130,0.824,0.702,-0.641,60.000,19357.000,1.000
0.147,-6.648,5.012,5.183,0.862,0.374,6.792,8.641,-0.157,0.990,0.125,0.824,0.702,-0.793,60.000,19358.000,1.000
-1.555,-8.358,3.674,2.758,-0.860,-0.899,4.404,6.918,-0.158,0.992,0.128,0.732,0.549,-0.885,60.000,19359.000,1.000
-3.232,-9.567,1.698,0.114,-2.459,-2.133,1.633,4.665,-0.157,0.990,0.128,1.038,0.427,-1.038,60.000,19360.000,1.000
-4.107,-9.802,0.170,-1.519,-3.922,-3.095,-1.497,2.359,-0.158,0.990,0.127,1.007,0.336,-1.099,60.000,19361.000,1.000
-3.830,-9.252,-0.443,-1.823,-5.469,-4.104,-5.179,-0.024,-0.156,0.991,0.128,1.007,0.336,-1.190,60.000,19362.000,1.000
-2.469,-8.430,-0.418,-1.533,-7.074,-5.503,-9.261,-2.859,-0.157,0.992,0.126,1.038,0.275,-1.251,60.000,19363.000,1.000
-0.394,-7.646,-0.195,-1.413,-8.331,-6.947,-12.884,-5.966,-0.156,0.991,0.127,1.221,0.122,-1.495,60.000,19364.000,1.000
1.826,-6.877,0.119,-1.356,-8.802,-7.490,-14.911,-8.193,-0.155,0.993,0.126,1.129,0.153,-1.465,60.000,19365.000,1.000
3.644,-6.011,0.682,-0.667,-8.382,-6.486,-14.802,-8.258,-0.155,0.994,0.127,1.221,0.153,-1.434,60.000,19366.000,1.000
4.762,-5.156,1.447,0.854,-7.371,-4.376,-13.078,-6.074,-0.154,0.996,0.130,1.282,0.214,-1.465,60.000,19367.000,1.000
5.130,-4.692,1.961,2.421,-6.292,-2.380,-10.913,-3.023,-0.152,0.994,0.132,1.160,0.244,-1.526,60.000,19368.000,1.000
4.746,-4.951,1.723,2.965,-5.694,-1.490,-9.389,-0.865,-0.150,0.997,0.129,1.282,0.183,-1.465,60.000,19369.000,1.000
3.707,-5.840,0.752,2.249,-5.940,-1.795,-8.995,-0.360,-0.150,1.000,0.129,1.190,0.214,-1.495,60.000,19370.000,1.000
2.481,-6.768,-0.286,1.109,-6.898,-2.584,-9.445,-0.907,-0.152,1.001,0.130,1.038,0.244,-1.465,60.000,19371.000,1.000
1.796,-7.100,-0.668,0.474,-7.948,-3.067,-9.982,-1.509,-0.152,1.002,0.132,0.885,0.366,-1.282,60.000,19372.000,1.000
2.060,-6.747,-0.321,0.325,-8.539,-3.088,-10.100,-1.922,-0.152,1.003,0.130,0.732,0.427,-1.221,60.000,19373.000,1.000
2.945,-6.259,0.155,-0.129,-8.751,-3.112,-10.022,-2.670,-0.153,1.005,0.131,0.671,0.519,-1.129,60.000,19374.000,1.000
3.635,-6.283,0.115,-1.375,-9.163,-3.543,-10.367,-4.114,-0.155,1.003,0.130,0.458,0.549,-1.007,60.000,19375.000,1.000
3.510,-6.972,-0.582,-3.063,-10.100,-4.208,-11.401,-5.937,-0.155,1.003,0.130,0.427,0.671,-0.916,60.000,19376.000,1.000
2.554,-8.006,-1.697,-4.581,-11.212,-4.629,-12.764,-7.633,-0.155,1.003,0.131,0.275,0.549,-0.824,60.000,19377.000,1.000
1.284,-9.044,-3.005,-5.717,-11.857,-4.600,-13.865,-9.056,-0.155,1.001,0.128,0.153,0.641,-0.793,60.000,19378.000,1.000
0.385,-9.893,-4.299,-6.463,-11.711,-4.269,-14.334,-10.197,-0.156,0.999,0.133,-0.031,0.732,-0.671,60.000,19379.000,1.000
0.229,-10.445,-5.217,-6.557,-11.028,-3.914,-14.247,-10.760,-0.159,0.997,0.131,-0.122,0.824,-0.519,60.000,19380.000,1.000
0.541,-10.749,-5.474,-5.731,-10.404,-3.843,-14.030,-10.401,-0.158,0.996,0.134,0.000,0.824,-0.519,60.000,19381.000,1.000
0.653,-11.032,-5.233,-4.339,-10.221,-4.214,-13.964,-9.257,-0.158,0.996,0.133,-0.061,0.702,-0.519,60.000,19382.000,1.000
0.182,-11.418,-5.000,-3.264,-10.277,-4.770,-13.789,-7.860,-0.158,0.993,0.129,-0.275,0.549,-0.519,60.000,19383.000,1.000
-0.654,-11.737,-5.082,-3.045,-10.090,-4.994,-13.067,-6.586,-0.159,0.991,0.130,-0.153,0.549,-0.488,60.000,19384.000,1.000
-1.323,-11.704,-5.256,-3.311,-9.518,-4.591,-11.839,-5.341,-0.156,0.993,0.129,-0.214,0.427,-0.458,60.000,19385.000,1.000
-1.479,-11.224,-5.109,-3.270,-8.871,-3.711,-10.615,-3.873,-0.156,0.993,0.132,-0.244,0.488,-0.488,60.000,19386.000,1.000
-1.166,-10.523,-4.676,-2.686,-8.483,-2.810,-9.810,-2.284,-0.154,0.994,0.131,-0.275,0.549,-0.458,60.000,19387.000,1.000
-0.606,-9.972,-4.495,-2.070,-8.329,-2.355,-9.398,-1.026,-0.155,0.993,0.131,-0.061,0.641,-0.519,60.000,19388.000,1.000
0.150,-9.663,-4.898,-1.820,-8.032,-2.394,-9.010,-0.236,-0.155,0.993,0.132,-0.061,0.580,-0.610,60.000,19389.000,1.000
1.209,-9.295,-5.538,-1.578,-7.247,-2.437,-8.280,0.604,-0.153,0.994,0.131,-0.092,0.610,-0.458,60.000,19390.000,1.000
2.438,-8.692,-5.930,-0.859,-6.175,-2.109,-7.335,1.932,-0.151,0.996,0.132,-0.031,0.702,-0.305,60.000,19391.000,1.000
3.288,-8.268,-6.268,-0.122,-5.615,-1.888,-6.941,3.136,-0.152,0.997,0.129,-0.092,0.732,-0.336,60.000,19392.000,1.000
3.182,-8.704,-7.344,-0.632,-6.362,-2.728,-7.889,2.847,-0.153,0.998,0.130,0.214,0.732,-0.336,60.000,19393.000,1.000
1.937,-10.268,-9.660,-3.130,-8.581,-4.969,-10.206,0.325,-0.152,0.997,0.133,0.183,0.763,-0.305,60.000,19394.000,1.000
-0.224,-12.539,-12.815,-6.881,-11.726,-7.900,-13.109,-3.634,-0.151,0.999,0.133,0.092,0.854,-0.305,60.000,19395.000,1.000
-2.842,-14.728,-15.756,-10.207,-14.856,-10.379,-15.603,-7.301,-0.152,1.000,0.131,0.122,0.885,-0.336,60.000,19396.000,1.000
-5.372,-16.273,-17.691,-12.002,-17.131,-11.818,-17.116,-9.478,-0.154,0.998,0.134,0.183,0.977,-0.305,60.000,19397.000,1.000
-7.367,-17.200,-18.695,-12.568,-18.203,-12.538,-17.672,-10.252,-0.153,0.999,0.134,0.275,1.007,-0.336,60.000,19398.000,1.000
-8.549,-17.818,-19.241,-12.805,-18.202,-13.130,-17.508,-10.263,-0.153,0.996,0.135,0.336,1.038,-0.397,60.000,19399.000,1.000
-8.725,-18.168,-19.289,-12.877,-17.419,-13.615,-16.624,-9.602,-0.154,0.995,0.135,0.397,1.007,-0.366,60.000,19400.000,1.000
-7.717,-17.970,-18.232,-12.100,-16.069,-13.522,-14.878,-7.807,-0.155,0.994,0.133,0.549,1.038,-0.366,60.000,19401.000,1.000
-5.472,-17.029,-15.746,-10.102,-14.284,-12.621,-12.367,-4.833,-0.153,0.995,0.135,0.610,1.068,-0.366,60.000,19402.000,1.000
-2.226,-15.490,-12.349,-7.608,-12.236,-11.257,-9.568,-1.569,-0.153,0.993,0.135,0.824,1.007,-0.488,60.000,19403.000,1.000
1.481,-13.632,-8.990,-5.787,-10.198,-9.933,-7.101,0.843,-0.153,0.994,0.134,0.824,1.068,-0.580,60.000,19404.000,1.000
4.977,-11.585,-6.266,-5.079,-8.492,-8.800,-5.431,1.958,-0.154,0.993,0.133,1.038,1.038,-0.671,60.000,19405.000,1.000
7.689,-9.371,-4.194,-4.973,-7.311,-7.706,-4.734,2.091,-0.154,0.994,0.131,1.190,0.977,-0.763,60.000,19406.000,1.000
9.377,-7.094,-2.585,-4.785,-6.507,-6.554,-4.863,1.667,-0.155,0.993,0.135,1.404,0.916,-0.824,60.000,19407.000,1.000
10.276,-4.850,-1.298,-4.223,-5.535,-5.323,-5.303,0.926,-0.154,0.993,0.133,1.556,1.068,-0.977,60.000,19408.000,1.000
10.988,-2.481,-0.044,-3.103,-3.749,-3.740,-5.262,0.282,-0.155,0.993,0.132,1.556,1.038,-1.068,60.000,19409.000,1.000
12.007,0.274,1.640,-1.078,-0.992,-1.348,-4.090,0.471,-0.155,0.996,0.131,1.648,1.007,-1.099,60.000,19410.000,1.000
13.210,3.218,3.848,1.819,2.071,1.762,-1.845,1.868,-0.155,0.997,0.133,1.678,0.946,-1.160,60.000,19411.000,1.000
13.886,5.551,5.901,4.533,4.369,4.561,0.678,3.782,-0.156,0.998,0.132,1.831,0.916,-1.160,60.000,19412.000,1.000
13.347,6.458,6.784,5.483,5.269,5.801,2.570,4.837,-0.154,0.999,0.133,1.740,0.946,-1.190,60.000,19413.000,1.000
11.546,5.867,6.085,4.006,4.984,5.099,3.391,4.227,-0.155,0.999,0.132,1.770,0.854,-1.129,60.000,19414.000,1.000
9.185,4.636,4.491,1.212,4.291,3.245,3.261,2.526,-0.155,0.998,0.133,1.862,0.854,-1.099,60.000,19415.000,1.000
7.294,3.973,3.333,-0.846,4.015,1.586,2.702,1.192,-0.157,1.000,0.130,1.801,0.916,-1.129,60.000,19416.000,1.000
6.560,4.499,3.465,-0.976,4.577,1.034,2.348,1.145,-0.157,0.998,0.129,1.831,0.916,-1.038,60.000,19417.000,1.000
6.931,5.843,4.589,0.330,5.835,1.526,2.570,1.944,-0.157,0.999,0.129,1.892,0.824,-1.190,60.000,19418.000,1.000
7.898,7.243,5.811,1.942,7.371,2.445,3.393,2.552,-0.156,0.997,0.128,1.770,0.793,-1.129,60.000,19419.000,1.000
8.989,8.282,6.677,3.457,8.853,3.355,4.697,2.620,-0.156,0.996,0.130,1.862,0.763,-0.946,60.000,19420.000,1.000
9.915,8.873,7.354,5.145,10.079,4.097,6.283,2.611,-0.158,0.999,0.131,1.953,0.671,-0.885,60.000,19421.000,1.000
10.532,8.907,8.005,6.964,10.957,4.480,7.877,2.878,-0.158,0.999,0.128,1.831,0.671,-0.916,60.000,19422.000,1.000
10.917,8.346,8.472,8.246,11.573,4.284,9.228,3.135,-0.157,0.999,0.127,1.862,0.702,-1.007,60.000,19423.000,1.000
11.359,7.607,8.648,8.488,12.171,3.639,10.229,2.941,-0.157,0.998,0.128,1.892,0.610,-0.946,60.000,19424.000,1.000
12.078,7.474,8.810,8.060,12.877,3.140,10.886,2.353,-0.158,0.998,0.129,1.740,0.549,-0.854,60.000,19425.000,1.000
12.927,8.396,9.330,7.794,13.499,3.336,11.192,1.809,-0.158,0.998,0.127,1.678,0.549,-0.793,60.000,19426.000,1.000
13.508,9.989,10.150,7.999,13.712,4.136,11.149,1.500,-0.156,0.998,0.125,1.526,0.519,-0.885,60.000,19427.000,1.000
13.570,11.306,10.727,8.219,13.405,4.882,10.893,1.201,-0.156,0.999,0.127,1.556,0.488,-0.946,60.000,19428.000,1.000
13.294,11.615,10.641,8.121,12.809,4.985,10.705,0.894,-0.157,0.999,0.125,1.495,0.458,-0.885,60.000,19429.000,1.000
13.150,10.844,10.156,8.226,12.283,4.345,10.761,1.203,-0.158,0.999,0.125,1.556,0.488,-0.946,60.000,19430.000,1.000
13.400,9.343,9.925,9.299,11.947,3.168,10.903,2.737,-0.156,0.998,0.127,1.587,0.549,-1.007,60.000,19431.000,1.000
13.772,7.441,10.155,11.152,11.591,1.647,10.766,5.055,-0.155,0.999,0.127,1.495,0.488,-0.824,60.000,19432.000,1.000
13.658,5.360,10.307,12.510,10.953,-0.052,10.136,6.744,-0.156,0.999,0.125,1.373,0.336,-0.793,60.000,19433.000,1.000
12.631,3.427,9.756,12.277,9.999,-1.610,9.132,6.716,-0.157,1.000,0.124,1.343,0.366,-0.793,60.000,19434.000,1.000
10.855,2.220,8.616,10.770,8.995,-2.445,8.158,5.336,-0.158,1.001,0.124,1.160,0.458,-0.732,60.000,19435.000,1.000
8.976,2.209,7.594,9.334,8.282,-2.046,7.639,3.985,-0.156,0.998,0.127,1.160,0.458,-0.610,60.000,19436.000,1.000
7.560,3.166,7.029,8.737,7.905,-0.670,7.622,3.533,-0.156,0.996,0.122,1.099,0.519,-0.610,60.000,19437.000,1.000
6.809,4.240,6.540,8.495,7.612,0.569,7.732,3.633,-0.156,0.998,0.127,1.129,0.519,-0.610,60.000,19438.000,1.000
6.707,4.761,5.738,7.870,7.204,0.645,7.575,3.550,-0.154,0.996,0.126,1.221,0.458,-0.702,60.000,19439.000,1.000
7.119,4.735,4.802,6.885,6.641,-0.512,7.007,3.141,-0.157,0.996,0.126,1.129,0.488,-0.671,60.000,19440.000,1.000
7.785,4.627,4.237,6.169,5.987,-2.041,6.175,2.861,-0.158,0.996,0.124,1.129,0.427,-0.580,60.000,19441.000,1.000
8.440,4.814,4.273,6.083,5.472,-2.883,5.462,3.095,-0.158,0.995,0.124,1.099,0.397,-0.580,60.000,19442.000,1.000
8.853,5.210,4.511,6.186,5.345,-2.647,5.143,3.630,-0.156,0.996,0.124,1.190,0.458,-0.580,60.000,19443.000,1.000
8.828,5.453,4.290,5.788,5.564,-1.798,5.056,3.915,-0.155,0.998,0.122,1.282,0.519,-0.610,60.000,19444.000,1.000
8.482,5.599,3.607,5.088,6.007,-0.758,5.012,3.921,-0.158,0.998,0.122,1.190,0.427,-0.610,60.000,19445.000,1.000
8.553,6.502,3.493,5.389,7.022,0.951,5.511,4.528,-0.158,0.998,0.123,1.251,0.366,-0.610,60.000,19446.000,1.000
10.019,9.141,5.094,7.763,9.300,4.212,7.521,6.722,-0.157,1.000,0.122,1.282,0.397,-0.580,60.000,19447.000,1.000
12.999,13.381,8.292,11.605,12.924,8.977,11.351,10.416,-0.156,0.998,0.124,1.129,0.336,-0.549,60.000,19448.000,1.000
16.051,17.459,11.385,14.793,16.652,13.671,15.855,14.254,-0.155,0.998,0.123,1.099,0.488,-0.488,60.000,19449.000,1.000
16.692,18.791,12.084,15.209,18.287,15.943,18.865,16.484,-0.156,1.000,0.122,1.068,0.519,-0.336,60.000,19450.000,1.000
12.786,15.386,8.720,11.802,15.824,13.918,18.306,15.743,-0.158,0.999,0.122,1.099,0.549,-0.305,60.000,19451.000,1.000
3.762,6.765,0.739,4.461,8.485,6.946,13.109,11.197,-0.156,0.997,0.123,1.007,0.458,-0.366,60.000,19452.000,1.000
-8.955,-5.807,-11.178,-6.212,-2.816,-4.161,3.686,2.758,-0.154,1.000,0.120,1.251,0.610,-0.397,60.000,19453.000,1.000
-22.345,-19.558,-24.848,-18.441,-15.620,-17.093,-8.019,-8.239,-0.154,1.000,0.120,1.190,0.610,-0.336,60.000,19454.000,1.000
-32.938,-31.001,-36.795,-29.099,-26.742,-28.547,-19.073,-18.859,-0.154,1.000,0.118,1.160,0.641,-0.336,60.000,19455.000,1.000
-38.320,-37.341,-43.676,-35.032,-33.540,-35.540,-26.701,-25.859,-0.153,0.999,0.123,1.221,0.793,-0.244,60.000,19456.000,1.000
-38.100,-37.754,-44.123,-35.031,-34.918,-36.830,-29.427,-27.639,-0.153,0.998,0.125,1.190,0.702,-0.092,60.000,19457.000,1.000
-33.744,-33.521,-39.320,-30.459,-31.502,-33.301,-27.486,-24.975,-0.153,0.999,0.124,1.282,0.793,-0.153,60.000,19458.000,1.000
-27.595,-27.007,-31.884,-23.912,-25.114,-27.086,-22.362,-19.926,-0.153,1.000,0.124,1.282,0.793,-0.122,60.000,19459.000,1.000
-21.768,-20.360,-24.207,-17.376,-17.943,-20.312,-15.987,-14.234,-0.153,0.996,0.126,1.160,0.793,-0.214,60.000,19460.000,1.000
-17.453,-14.796,-17.659,-11.596,-11.776,-14.403,-10.075,-8.772,-0.155,0.997,0.125,1.343,0.885,-0.214,60.000,19461.000,1.000
-14.835,-10.683,-12.841,-6.809,-7.517,-10.067,-5.731,-4.080,-0.154,0.995,0.125,1.434,0.946,-0.214,60.000,19462.000,1.000
-13.519,-7.997,-10.070,-3.509,-5.160,-7.452,-3.269,-0.787,-0.151,0.994,0.124,1.373,0.977,-0.305,60.000,19463.000,1.000
-13.028,-6.547,-9.323,-2.135,-4.133,-6.105,-2.228,0.788,-0.154,0.995,0.121,1.343,0.977,-0.305,60.000,19464.000,1.000
-12.944,-5.886,-9.828,-2.237,-3.696,-5.016,-1.694,1.192,-0.155,0.997,0.118,1.312,1.068,-0.366,60.000,19465.000,1.000
-12.836,-5.426,-10.191,-2.563,-3.210,-3.215,-0.887,1.494,-0.153,0.998,0.121,1.373,0.977,-0.366,60.000,19466.000,1.000
-12.346,-4.851,-9.360,-2.227,-2.339,-0.522,0.432,2.277,-0.152,1.002,0.122,1.282,0.977,-0.519,60.000,19467.000,1.000
-11.371,-4.212,-7.332,-1.375,-1.013,2.516,2.190,3.298,-0.153,1.003,0.123,1.251,1.007,-0.549,60.000,19468.000,1.000
-10.112,-3.590,-4.907,-0.578,0.599,5.256,4.218,4.080,-0.153,1.004,0.124,1.251,1.007,-0.458,60.000,19469.000,1.000
-9.108,-3.020,-3.062,-0.087,1.897,7.042,5.863,4.373,-0.152,1.004,0.123,1.068,1.190,-0.549,60.000,19470.000,1.000
-9.014,-2.655,-2.539,0.180,2.053,7.133,6.045,4.148,-0.154,1.002,0.122,0.854,1.251,-0.610,60.000,19471.000,1.000
-10.001,-2.607,-3.598,0.264,0.852,5.245,4.307,3.569,-0.153,1.002,0.120,0.885,1.312,-0.610,60.000,19472.000,1.000
-11.463,-2.695,-5.948,0.020,-0.938,1.999,1.435,2.987,-0.154,1.000,0.123,0.763,1.343,-0.549,60.000,19473.000,1.000
-12.555,-2.614,-8.962,-0.676,-2.309,-1.385,-1.228,2.749,-0.154,0.998,0.123,0.824,1.343,-0.610,60.000,19474.000,1.000
-13.012,-2.353,-11.985,-1.726,-2.996,-3.853,-2.873,2.926,-0.156,0.997,0.120,0.824,1.373,-0.519,60.000,19475.000,1.000
-13.237,-2.220,-14.460,-2.888,-3.474,-5.008,-3.543,3.252,-0.156,0.997,0.121,1.007,1.404,-0.549,60.000,19476.000,1.000
-13.637,-2.349,-15.869,-4.022,-4.015,-4.968,-3.559,3.281,-0.156,0.998,0.121,0.977,1.282,-0.549,60.000,19477.000,1.000
-14.057,-2.388,-15.884,-5.217,-4.245,-3.997,-2.999,2.577,-0.156,0.997,0.122,1.068,1.343,-0.549,60.000,19478.000,1.000
-13.955,-1.897,-14.708,-6.614,-3.860,-2.495,-1.921,0.907,-0.157,0.994,0.122,1.221,1.282,-0.519,60.000,19479.000,1.000
-13.026,-0.868,-13.025,-8.065,-3.311,-1.050,-0.753,-1.469,-0.157,0.994,0.125,1.251,1.221,-0.488,60.000,19480.000,1.000
-11.591,0.388,-11.478,-9.105,-3.329,-0.091,-0.018,-3.755,-0.156,0.994,0.123,1.282,1.221,-0.488,60.000,19481.000,1.000
-10.356,1.576,-10.433,-9.520,-4.109,0.364,0.163,-5.242,-0.157,0.993,0.119,1.434,1.312,-0.397,60.000,19482.000,1.000
-9.772,2.440,-10.140,-9.766,-5.259,0.412,-0.008,-6.001,-0.156,0.992,0.117,1.648,1.282,-0.366,60.000,19483.000,1.000
-9.615,2.826,-10.513,-10.335,-6.205,0.117,-0.310,-6.556,-0.157,0.993,0.116,1.678,1.221,-0.305,60.000,19484.000,1.000
-9.106,3.032,-10.645,-10.727,-6.385,-0.136,-0.441,-6.865,-0.157,0.994,0.115,1.678,1.099,-0.397,60.000,19485.000,1.000
-7.421,3.882,-9.077,-9.609,-5.280,0.477,0.141,-6.156,-0.156,0.992,0.118,1.801,1.190,-0.336,60.000,19486.000,1.000
-4.224,6.114,-5.011,-6.271,-2.664,2.538,1.872,-3.955,-0.158,0.994,0.120,1.740,1.221,-0.397,60.000,19487.000,1.000
-0.014,9.465,0.635,-1.710,0.879,5.472,4.375,-1.035,-0.159,0.997,0.118,1.831,1.129,-0.397,60.000,19488.000,1.000
3.919,12.457,5.515,1.960,3.776,7.583,6.285,0.946,-0.159,0.998,0.119,1.831,1.129,-0.458,60.000,19489.000,1.000
6.145,13.381,7.485,3.253,4.311,7.305,6.105,0.861,-0.160,1.001,0.119,1.862,1.099,-0.427,60.000,19490.000,1.000
6.024,11.574,6.090,2.351,1.932,4.399,3.372,-0.993,-0.160,1.003,0.119,1.831,0.946,-0.580,60.000,19491.000,1.000
4.063,7.754,2.528,0.423,-2.282,-0.099,-1.001,-3.475,-0.159,1.004,0.118,1.831,0.946,-0.488,60.000,19492.000,1.000
1.494,3.428,-1.451,-1.589,-6.371,-4.687,-5.310,-5.655,-0.159,1.005,0.120,1.892,0.916,-0.488,60.000,19493.000,1.000
-0.412,0.168,-4.341,-3.139,-8.620,-7.996,-7.941,-7.012,-0.158,1.005,0.125,1.740,0.854,-0.580,60.000,19494.000,1.000
-0.859,-0.896,-5.054,-3.552,-8.250,-9.042,-8.039,-7.018,-0.158,1.005,0.123,1.617,0.854,-0.427,60.000,19495.000,1.000
0.216,0.521,-3.149,-2.150,-5.539,-7.510,-5.730,-5.250,-0.156,1.004,0.119,1.526,0.763,-0.305,60.000,19496.000,1.000
2.126,3.569,0.645,0.784,-1.606,-4.190,-2.035,-2.194,-0.155,1.004,0.119,1.312,0.824,-0.275,60.000,19497.000,1.000
3.743,6.562,4.452,3.690,2.031,-0.848,1.540,0.552,-0.156,1.003,0.118,1.251,0.916,-0.244,60.000,19498.000,1.000
4.230,8.103,6.483,5.049,4.260,1.021,3.908,1.551,-0.155,1.003,0.120,1.068,0.916,-0.153,60.000,19499.000,1.000
3.629,8.083,6.489,4.970,5.030,1.446,5.123,0.990,-0.153,1.004,0.119,1.007,0.946,0.000,60.000,19500.000,1.000
2.637,7.474,5.758,4.950,5.191,1.727,6.091,0.420,-0.154,1.004,0.122,1.038,1.007,0.000,60.000,19501.000,1.000
1.959,7.328,5.777,6.142,5.777,3.094,7.667,1.104,-0.154,1.003,0.119,0.854,0.977,0.031,60.000,19502.000,1.000
1.967,8.149,7.107,8.324,7.435,5.846,10.134,3.016,-0.154,1.002,0.120,0.793,1.007,-0.061,60.000,19503.000,1.000
2.730,9.892,9.377,10.512,10.131,9.409,13.132,5.289,-0.155,1.002,0.121,0.641,1.099,0.000,60.000,19504.000,1.000
4.112,12.150,11.927,12.121,13.118,12.795,15.745,7.106,-0.153,1.001,0.120,0.610,1.282,0.153,60.000,19505.000,1.000
6.045,14.475,14.400,13.401,15.518,15.339,17.163,8.232,-0.154,1.002,0.120,0.488,1.190,0.092,60.000,19506.000,1.000
8.782,16.683,16.830,14.922,17.124,17.198,17.508,8.974,-0.154,1.000,0.122,0.427,1.190,0.122,60.000,19507.000,1.000
12.568,18.688,19.211,16.760,18.296,18.760,17.475,9.572,-0.154,0.998,0.120,0.427,1.251,0.244,60.000,19508.000,1.000
17.070,20.177,21.252,18.437,19.207,19.797,17.219,9.843,-0.153,0.997,0.124,0.183,1.190,0.153,60.000,19509.000,1.000
21.304,20.748,22.694,19.626,19.577,19.691,16.183,9.625,-0.154,0.996,0.119,0.061,1.282,0.092,60.000,19510.000,1.000
24.049,20.154,23.457,20.363,19.000,18.111,13.853,9.079,-0.154,0.996,0.121,0.092,1.282,0.031,60.000,19511.000,1.000
24.413,18.313,23.335,20.417,17.318,15.186,10.290,8.227,-0.155,0.997,0.121,0.092,1.190,-0.031,60.000,19512.000,1.000
22.329,15.357,21.943,19.058,14.820,11.350,6.094,6.643,-0.154,0.997,0.125,0.061,1.190,-0.031,60.000,19513.000,1.000
18.617,11.811,19.237,15.871,12.132,7.332,2.133,4.039,-0.155,0.996,0.127,0.061,1.129,-0.031,60.000,19514.000,1.000
14.587,8.617,16.016,11.661,9.913,4.184,-0.722,1.036,-0.154,0.994,0.124,0.061,1.099,-0.031,60.000,19515.000,1.000
11.529,6.835,13.666,8.197,8.677,3.061,-1.763,-0.978,-0.154,0.996,0.123,0.153,0.977,-0.061,60.000,19516.000,1.000
10.288,7.049,13.173,6.833,8.744,4.597,-0.659,-0.945,-0.155,0.996,0.125,0.092,0.977,-0.031,60.000,19517.000,1.000
10.883,8.832,14.283,7.401,10.015,8.165,2.125,0.923,-0.155,0.996,0.124,0.214,1.038,-0.092,60.000,19518.000,1.000
12.437,10.892,15.728,8.547,11.780,11.981,5.275,3.377,-0.155,0.996,0.125,0.244,1.038,-0.153,60.000,19519.000,1.000
13.676,11.923,16.291,9.039,12.970,14.283,7.362,5.239,-0.152,0.998,0.125,0.336,1.007,-0.214,60.000,19520.000,1.000
13.550,11.234,15.464,8.422,12.693,14.275,7.621,6.006,-0.152,1.000,0.127,0.336,1.068,-0.275,60.000,19521.000,1.000
11.604,8.746,13.233,6.553,10.620,12.030,6.050,5.519,-0.153,1.000,0.128,0.305,1.038,-0.275,60.000,19522.000,1.000
8.163,4.892,9.809,3.267,7.139,8.127,3.174,3.679,-0.153,0.998,0.127,0.366,1.038,-0.366,60.000,19523.000,1.000
4.296,0.661,5.785,-1.096,3.250,3.647,-0.104,0.838,-0.150,0.998,0.124,0.427,0.977,-0.305,60.000,19524.000,1.000
1.312,-2.614,2.210,-5.203,0.110,0.102,-2.712,-1.876,-0.151,0.998,0.126,0.336,1.099,-0.275,60.000,19525.000,1.000
0.154,-3.805,0.137,-7.286,-1.457,-1.145,-3.765,-3.063,-0.151,0.999,0.125,0.397,1.099,-0.275,60.000,19526.000,1.000
1.125,-2.524,-0.025,-6.445,-1.142,0.392,-2.937,-2.092,-0.149,0.999,0.127,0.336,1.221,-0.122,60.000,19527.000,1.000
3.731,0.547,1.144,-3.521,0.724,3.929,-0.795,0.236,-0.150,0.999,0.128,0.366,1.221,-0.122,60.000,19528.000,1.000
6.617,3.817,2.404,-0.568,3.064,7.655,1.182,2.127,-0.151,1.001,0.125,0.366,1.160,-0.183,60.000,19529.000,1.000
8.238,5.681,2.818,0.802,4.502,9.722,1.327,2.190,-0.151,1.001,0.127,0.397,1.221,-0.214,60.000,19530.000,1.000
7.943,5.554,2.458,0.515,4.297,9.376,-1.003,0.462,-0.151,0.999,0.126,0.549,1.129,-0.183,60.000,19531.000,1.000
6.290,3.989,1.981,-0.552,2.815,7.194,-4.891,-2.000,-0.151,0.997,0.125,0.458,1.251,-0.122,60.000,19532.000,1.000
4.375,1.947,1.686,-1.796,1.058,4.392,-8.535,-4.206,-0.150,0.996,0.123,0.519,1.343,-0.092,60.000,19533.000,1.000
3.083,0.314,1.429,-3.026,-0.066,2.189,-10.332,-5.557,-0.150,0.992,0.121,0.702,1.312,-0.214,60.000,19534.000,1.000
2.683,-0.164,1.223,-3.835,-0.128,1.573,-9.586,-5.544,-0.151,0.993,0.123,0.824,1.343,-0.305,60.000,19535.000,1.000
2.742,0.762,1.229,-3.762,0.614,2.828,-6.829,-4.014,-0.149,0.990,0.122,1.038,1.495,-0.305,60.000,19536.000,1.000
2.560,2.398,1.168,-3.117,1.264,5.039,-3.633,-1.867,-0.150,0.990,0.123,1.160,1.465,-0.305,60.000,19537.000,1.000
1.837,3.486,0.402,-2.977,0.921,6.513,-1.716,-0.756,-0.150,0.990,0.123,1.373,1.373,-0.366,60.000,19538.000,1.000
0.853,3.201,-1.251,-4.040,-0.582,6.063,-1.909,-1.706,-0.151,0.991,0.122,1.495,1.404,-0.488,60.000,19539.000,1.000
0.126,1.719,-3.082,-5.728,-2.680,3.880,-3.842,-4.175,-0.150,0.989,0.120,1.648,1.434,-0.549,60.000,19540.000,1.000
0.010,-0.136,-4.027,-6.637,-4.615,1.148,-6.404,-6.542,-0.149,0.990,0.118,1.801,1.495,-0.641,60.000,19541.000,1.000
0.422,-1.670,-3.690,-5.980,-5.866,-1.058,-8.458,-7.543,-0.149,0.992,0.117,1.892,1.526,-0.702,60.000,19542.000,1.000
0.813,-2.745,-2.837,-4.473,-6.277,-2.404,-9.323,-7.208,-0.149,0.992,0.119,2.014,1.495,-0.671,60.000,19543.000,1.000
0.471,-3.514,-2.718,-3.594,-5.969,-2.970,-8.798,-6.342,-0.148,0.993,0.116,2.167,1.556,-0.763,60.000,19544.000,1.000
-0.986,-3.923,-3.847,-4.044,-5.183,-2.671,-6.952,-5.349,-0.147,0.995,0.115,2.197,1.617,-0.854,60.000,19545.000,1.000
-3.321,-3.684,-5.611,-5.216,-4.195,-1.380,-4.206,-3.999,-0.146,0.997,0.114,2.380,1.678,-0.854,60.000,19546.000,1.000
-5.796,-2.675,-6.984,-6.097,-3.234,0.469,-1.549,-2.245,-0.146,0.999,0.114,2.319,1.770,-0.854,60.000,19547.000,1.000
-7.481,-1.092,-7.249,-6.168,-2.243,1.971,-0.070,-0.618,-0.145,1.000,0.114,2.197,1.862,-0.763,60.000,19548.000,1.000
-7.580,0.853,-6.039,-5.299,-0.801,2.722,-0.033,0.418,-0.145,1.004,0.113,2.075,1.923,-0.763,60.000,19549.000,1.000
-5.799,3.134,-3.185,-3.292,1.470,3.359,-0.606,1.136,-0.146,1.007,0.113,1.923,2.014,-0.854,60.000,19550.000,1.000
-2.642,5.654,1.069,-0.111,4.338,4.743,-0.730,2.130,-0.148,1.008,0.116,1.740,2.014,-0.671,60.000,19551.000,1.000
0.595,7.771,5.575,3.311,6.774,6.582,-0.284,3.184,-0.149,1.007,0.116,1.373,2.014,-0.641,60.000,19552.000,1.000
2.431,8.452,8.500,5.126,7.575,7.458,-0.054,3.065,-0.150,1.009,0.118,1.007,2.045,-0.763,60.000,19553.000,1.000
2.119,7.192,8.611,4.057,6.329,6.361,-0.631,0.815,-0.152,1.008,0.116,0.946,2.045,-0.732,60.000,19554.000,1.000
-0.173,4.434,6.186,0.628,3.530,3.425,-2.044,-3.125,-0.156,1.008,0.116,0.916,1.984,-0.763,60.000,19555.000,1.000
-3.888,0.934,2.488,-3.380,-0.139,-0.832,-4.331,-7.350,-0.157,1.008,0.121,0.549,1.923,-0.824,60.000,19556.000,1.000
-8.301,-2.825,-1.288,-6.426,-4.122,-6.064,-7.473,-10.640,-0.158,1.008,0.120,0.244,1.862,-0.916,60.000,19557.000,1.000
-12.331,-6.455,-4.386,-7.991,-7.662,-11.582,-10.639,-12.454,-0.157,1.005,0.123,0.153,1.709,-1.007,60.000,19558.000,1.000
-14.713,-9.309,-6.226,-8.180,-9.761,-15.919,-12.244,-12.622,-0.160,1.004,0.124,-0.122,1.587,-1.129,60.000,19559.000,1.000
-14.684,-10.601,-6.280,-7.068,-9.782,-17.371,-11.077,-11.030,-0.159,1.005,0.124,-0.427,1.404,-1.129,60.000,19560.000,1.000
-12.440,-9.892,-4.407,-4.693,-7.915,-15.096,-7.185,-7.769,-0.164,1.002,0.126,-0.580,0.977,-1.282,60.000,19561.000,1.000
-8.963,-7.466,-1.292,-1.611,-4.995,-9.814,-1.718,-3.558,-0.165,0.999,0.128,-0.824,0.732,-1.434,60.000,19562.000,1.000
-5.451,-4.173,1.714,0.988,-1.957,-3.463,3.851,0.289,-0.166,0.999,0.126,-1.068,0.488,-1.495,60.000,19563.000,1.000
-2.809,-0.908,3.402,2.038,0.492,1.929,8.345,2.633,-0.164,0.997,0.126,-1.160,0.153,-1.556,60.000,19564.000,1.000
-1.515,1.615,3.338,1.367,1.788,5.169,11.011,3.233,-0.163,0.997,0.127,-1.160,-0.061,-1.587,60.000,19565.000,1.000
-1.667,2.863,1.840,-0.336,1.540,6.127,11.560,2.714,-0.162,0.993,0.127,-1.282,-0.244,-1.648,60.000,19566.000,1.000
-2.875,2.672,-0.416,-2.183,-0.102,5.389,10.303,1.888,-0.160,0.993,0.131,-1.343,-0.458,-1.587,60.000,19567.000,1.000
-4.308,1.373,-2.753,-3.668,-2.355,3.741,8.028,1.130,-0.158,0.994,0.129,-1.404,-0.671,-1.526,60.000,19568.000,1.000
-5.072,-0.346,-4.581,-4.598,-4.248,1.934,5.619,0.442,-0.156,0.994,0.130,-1.495,-0.763,-1.495,60.000,19569.000,1.000
-4.669,-1.718,-5.316,-4.659,-5.172,0.674,3.719,-0.008,-0.156,0.994,0.133,-1.556,-0.824,-1.343,60.000,19570.000,1.000
-3.263,-2.287,-4.613,-3.523,-5.114,0.335,2.582,0.176,-0.158,0.994,0.134,-1.526,-0.854,-1.282,60.000,19571.000,1.000
-1.535,-2.186,-2.788,-1.508,-4.469,0.650,2.104,1.001,-0.158,0.996,0.135,-1.495,-0.946,-1.099,60.000,19572.000,1.000
-0.188,-1.927,-0.764,0.281,-3.696,0.925,1.940,1.731,-0.156,0.995,0.135,-1.556,-1.038,-0.916,60.000,19573.000,1.000
0.469,-1.868,0.600,0.815,-3.132,0.696,1.691,1.454,-0.158,0.995,0.133,-1.709,-1.068,-0.763,60.000,19574.000,1.000
0.520,-1.935,1.165,0.139,-2.964,0.145,1.124,0.016,-0.158,0.997,0.133,-1.740,-1.190,-0.702,60.000,19575.000,1.000
0.221,-1.831,1.470,-0.725,-3.194,-0.239,0.221,-1.815,-0.161,0.997,0.136,-1.678,-1.190,-0.610,60.000,19576.000,1.000
-0.057,-1.322,2.146,-0.858,-3.551,-0.265,-0.880,-3.164,-0.163,0.995,0.140,-1.740,-1.221,-0.427,60.000,19577.000,1.000
0.263,-0.202,3.540,-0.090,-3.405,0.033,-1.714,-3.663,-0.161,0.996,0.137,-1.648,-1.404,-0.336,60.000,19578.000,1.000
1.853,1.769,5.850,1.457,-1.998,0.891,-1.418,-3.186,-0.158,0.998,0.136,-1.740,-1.434,-0.305,60.000,19579.000,1.000
4.982,4.589,9.241,3.937,0.891,2.652,0.597,-1.479,-0.159,0.996,0.139,-1.801,-1.434,-0.122,60.000,19580.000,1.000
9.047,7.645,13.473,7.430,4.470,4.993,3.795,1.432,-0.158,0.994,0.138,-1.740,-1.465,-0.092,60.000,19581.000,1.000
12.688,9.813,17.529,11.168,7.280,6.680,6.578,4.615,-0.157,0.994,0.142,-1.740,-1.434,-0.061,60.000,19582.000,1.000
14.545,10.087,19.983,13.615,8.167,6.382,7.382,6.515,-0.156,0.996,0.140,-1.678,-1.556,-0.153,60.000,19583.000,1.000
14.000,8.239,19.939,13.622,6.933,3.767,5.722,6.074,-0.154,0.996,0.138,-1.709,-1.495,-0.061,60.000,19584.000,1.000
11.476,5.038,17.765,11.546,4.315,-0.087,2.392,3.631,-0.153,0.994,0.137,-1.556,-1.434,-0.092,60.000,19585.000,1.000
8.314,1.916,15.002,9.163,1.639,-3.224,-0.995,0.787,-0.151,0.992,0.137,-1.434,-1.312,-0.092,60.000,19586.000,1.000
6.209,0.194,13.368,8.262,0.325,-3.986,-2.805,-0.784,-0.151,0.991,0.137,-1.282,-1.251,-0.061,60.000,19587.000,1.000
6.357,0.400,13.638,9.278,1.192,-2.099,-2.210,-0.498,-0.149,0.990,0.137,-1.251,-1.190,-0.183,60.000,19588.000,1.000
8.830,2.116,15.362,11.322,3.934,1.234,0.387,1.108,-0.148,0.991,0.138,-1.099,-0.946,-0.275,60.000,19589.000,1.000
12.534,4.289,17.472,13.246,7.206,4.205,3.573,3.163,-0.146,0.990,0.138,-0.916,-0.732,-0.305,60.000,19590.000,1.000
15.869,5.859,19.063,14.462,9.469,5.469,5.717,5.037,-0.146,0.990,0.135,-0.610,-0.488,-0.336,60.000,19591.000,1.000
17.819,6.460,19.845,14.989,10.118,4.804,6.034,6.451,-0.146,0.989,0.138,-0.336,-0.153,-0.427,60.000,19592.000,1.000
18.469,6.511,20.018,15.019,9.762,3.048,5.032,7.361,-0.143,0.989,0.135,-0.244,0.031,-0.519,60.000,19593.000,1.000
18.264,6.424,19.644,14.471,9.152,1.235,3.731,7.682,-0.141,0.991,0.136,0.000,0.183,-0.549,60.000,19594.000,1.000
17.120,6.046,18.404,13.084,8.201,-0.147,2.636,7.222,-0.142,0.992,0.136,0.214,0.488,-0.580,60.000,19595.000,1.000
14.736,5.091,16.146,10.908,6.429,-1.017,1.731,6.013,-0.141,0.992,0.134,0.336,0.732,-0.671,60.000,19596.000,1.000
11.360,3.645,13.174,8.272,3.878,-1.379,0.998,4.335,-0.141,0.995,0.134,0.488,1.129,-0.702,60.000,19597.000,1.000
7.773,1.990,9.848,5.269,1.178,-1.419,0.512,2.343,-0.141,0.999,0.133,0.488,1.343,-0.793,60.000,19598.000,1.000
4.718,0.268,6.324,1.819,-1.048,-1.509,0.185,0.077,-0.142,1.001,0.133,0.641,1.495,-0.854,60.000,19599.000,1.000
2.474,-1.538,2.760,-1.739,-2.643,-1.925,-0.292,-2.151,-0.145,1.002,0.134,0.641,1.862,-0.916,60.000,19600.000,1.000
0.951,-3.323,-0.444,-4.478,-3.730,-2.550,-1.038,-3.637,-0.145,1.000,0.135,0.763,2.075,-0.977,60.000,19601.000,1.000
0.100,-4.642,-2.732,-5.530,-4.234,-2.920,-1.616,-3.743,-0.149,1.000,0.134,0.824,2.289,-1.038,60.000,19602.000,1.000
-0.018,-5.041,-3.865,-4.940,-3.942,-2.783,-1.509,-2.611,-0.149,1.002,0.135,0.854,2.502,-1.221,60.000,19603.000,1.000
0.418,-4.611,-4.235,-3.718,-3.119,-2.628,-0.981,-1.272,-0.152,1.004,0.134,0.885,2.655,-1.221,60.000,19604.000,1.000
0.899,-3.936,-4.426,-2.873,-2.587,-3.291,-0.987,-0.757,-0.153,1.004,0.134,0.885,2.808,-1.282,60.000,19605.000,1.000
1.004,-3.454,-4.537,-2.574,-2.931,-4.975,-2.084,-1.136,-0.152,1.002,0.134,0.854,2.930,-1.404,60.000,19606.000,1.000
0.827,-3.071,-4.247,-2.433,-3.822,-6.895,-3.754,-1.681,-0.152,1.000,0.134,1.007,3.021,-1.404,60.000,19607.000,1.000
0.917,-2.378,-3.426,-2.295,-4.287,-7.938,-4.882,-1.800,-0.153,1.001,0.134,1.007,3.021,-1.343,60.000,19608.000,1.000
1.754,-1.101,-2.347,-2.343,-3.573,-7.474,-4.689,-1.427,-0.156,1.000,0.135,1.007,3.174,-1.465,60.000,19609.000,1.000
3.247,0.654,-1.328,-2.534,-1.723,-5.532,-3.132,-0.558,-0.158,0.998,0.134,1.068,3.174,-1.373,60.000,19610.000,1.000
4.727,2.418,-0.467,-2.420,0.585,-2.565,-0.684,1.014,-0.159,0.998,0.135,1.221,3.204,-1.343,60.000,19611.000,1.000
5.428,3.534,0.138,-1.760,2.573,0.636,1.939,3.181,-0.162,0.999,0.134,1.221,3.174,-1.312,60.000,19612.000,1.000
5.018,3.488,0.151,-0.980,3.799,3.089,4.079,5.186,-0.161,0.998,0.136,1.221,3.143,-1.221,60.000,19613.000,1.000
3.759,2.236,-0.722,-0.668,4.253,4.198,5.476,6.279,-0.161,1.000,0.133,1.129,3.174,-1.190,60.000,19614.000,1.000
2.217,0.222,-2.265,-0.748,4.133,4.167,6.270,6.536,-0.163,0.999,0.130,1.282,3.021,-1.099,60.000,19615.000,1.000
0.850,-1.936,-3.810,-0.532,3.560,3.612,6.602,6.627,-0.164,1.000,0.134,1.404,2.960,-1.068,60.000,19616.000,1.000
-0.129,-3.748,-4.847,0.329,2.566,2.932,6.383,6.806,-0.165,1.000,0.133,1.404,2.838,-0.977,60.000,19617.000,1.000
-0.635,-4.928,-5.421,1.244,1.247,2.105,5.433,6.500,-0.167,0.998,0.134,1.495,2.716,-0.763,60.000,19618.000,1.000
-0.687,-5.389,-5.879,1.251,-0.225,0.928,3.693,4.995,-0.167,0.998,0.131,1.434,2.502,-0.702,60.000,19619.000,1.000
-0.551,-5.232,-6.412,0.071,-1.721,-0.548,1.413,2.427,-0.168,0.998,0.134,1.495,2.441,-0.519,60.000,19620.000,1.000
-0.631,-4.643,-6.896,-1.533,-3.069,-1.776,-0.745,-0.033,-0.166,0.996,0.131,1.556,2.258,-0.458,60.000,19621.000,1.000
-1.023,-3.688,-7.071,-2.434,-3.844,-2.019,-1.892,-1.042,-0.165,0.997,0.131,1.648,2.075,-0.305,60.000,19622.000,1.000
-1.367,-2.375,-6.843,-2.142,-3.497,-0.959,-1.441,-0.148,-0.165,0.997,0.131,1.617,1.984,-0.244,60.000,19623.000,1.000
-1.382,-0.974,-6.447,-1.084,-1.941,0.987,0.438,2.014,-0.165,0.997,0.131,1.770,1.801,-0.153,60.000,19624.000,1.000
-1.383,-0.082,-6.238,0.038,0.104,2.940,2.857,4.461,-0.165,0.998,0.130,1.831,1.709,0.000,60.000,19625.000,1.000
-2.073,-0.247,-6.402,0.849,1.532,4.089,4.715,6.486,-0.165,0.999,0.128,1.801,1.587,0.092,60.000,19626.000,1.000
-3.844,-1.621,-6.984,1.149,1.615,4.006,5.239,7.571,-0.163,0.999,0.129,1.984,1.465,0.214,60.000,19627.000,1.000
-6.455,-4.001,-8.176,0.523,0.290,2.544,4.119,7.093,-0.161,0.997,0.129,1.862,1.282,0.336,60.000,19628.000,1.000
-9.320,-7.034,-10.323,-1.431,-2.146,-0.274,1.381,4.611,-0.160,0.997,0.129,1.831,1.312,0.366,60.000,19629.000,1.000
-11.832,-10.168,-13.358,-4.365,-5.191,-3.857,-2.380,0.653,-0.157,0.996,0.130,1.831,1.099,0.519,60.000,19630.000,1.000
-13.341,-12.490,-16.316,-6.990,-7.989,-6.718,-5.762,-3.079,-0.158,0.996,0.128,1.801,0.946,0.488,60.000,19631.000,1.000
-13.229,-13.100,-17.873,-8.097,-9.528,-7.307,-7.212,-4.884,-0.158,0.996,0.126,1.801,1.007,0.488,60.000,19632.000,1.000
-11.430,-11.914,-17.572,-7.779,-9.363,-5.389,-6.229,-4.554,-0.156,0.993,0.126,1.862,1.099,0.580,60.000,19633.000,1.000
-8.752,-9.846,-16.183,-7.247,-8.042,-2.273,-3.773,-3.349,-0.155,0.994,0.127,1.953,0.977,0.519,60.000,19634.000,1.000
-6.339,-7.956,-14.641,-7.293,-6.579,0.360,-1.431,-2.472,-0.154,0.992,0.128,1.892,0.946,0.488,60.000,19635.000,1.000
-4.844,-6.658,-13.067,-7.452,-5.609,1.617,-0.292,-2.008,-0.153,0.992,0.125,1.984,0.916,0.549,60.000,19636.000,1.000
-4.234,-5.881,-11.164,-6.990,-5.179,1.453,-0.559,-1.547,-0.154,0.991,0.120,2.075,0.946,0.488,60.000,19637.000,1.000
-4.182,-5.589,-9.156,-6.172,-5.113,0.201,-1.852,-1.219,-0.151,0.991,0.123,1.984,0.946,0.305,60.000,19638.000,1.000
-4.342,-5.730,-7.744,-5.909,-5.202,-1.519,-3.482,-1.477,-0.153,0.990,0.124,1.984,0.885,0.275,60.000,19639.000,1.000
-4.330,-5.863,-7.187,-6.351,-5.141,-2.673,-4.523,-2.088,-0.151,0.992,0.124,2.136,0.793,0.244,60.000,19640.000,1.000
-3.833,-5.329,-7.001,-6.570,-4.622,-2.269,-4.181,-2.109,-0.155,0.994,0.123,2.136,0.885,0.153,60.000,19641.000,1.000
-2.928,-3.953,-6.708,-5.827,-3.676,-0.323,-2.479,-1.063,-0.153,0.993,0.125,2.045,0.885,0.061,60.000,19642.000,1.000
-2.088,-2.300,-6.454,-4.561,-2.725,1.894,-0.404,0.323,-0.151,0.994,0.126,2.075,0.885,-0.153,60.000,19643.000,1.000
-1.723,-1.063,-6.550,-3.655,-2.132,2.959,0.884,0.948,-0.153,0.996,0.124,1.984,0.946,-0.183,60.000,19644.000,1.000
-1.812,-0.410,-6.716,-3.125,-1.840,2.540,0.948,0.592,-0.151,0.997,0.125,1.953,0.916,-0.183,60.000,19645.000,1.000
-2.058,-0.067,-6.216,-2.138,-1.553,1.413,0.158,-0.015,-0.151,0.998,0.124,1.892,0.946,-0.397,60.000,19646.000,1.000
-2.123,0.255,-4.643,-0.166,-1.035,0.566,-0.742,-0.151,-0.152,0.999,0.123,1.801,0.916,-0.610,60.000,19647.000,1.000
-1.720,0.691,-2.320,2.328,-0.124,0.537,-1.033,0.235,-0.152,0.999,0.124,1.770,0.824,-0.641,60.000,19648.000,1.000
-0.800,1.265,-0.023,4.338,1.204,1.285,-0.429,0.734,-0.152,1.000,0.120,1.587,0.732,-0.702,60.000,19649.000,1.000
0.236,1.817,1.480,5.171,2.558,2.299,0.586,0.979,-0.154,1.000,0.121,1.526,0.854,-0.793,60.000,19650.000,1.000
0.760,2.005,1.740,4.812,3.226,2.934,1.104,0.908,-0.152,1.002,0.120,1.404,0.916,-0.824,60.000,19651.000,1.000
0.534,1.620,0.739,3.688,2.879,2.962,0.753,0.748,-0.152,1.004,0.121,1.190,0.977,-0.763,60.000,19652.000,1.000
0.064,1.019,-1.030,2.380,2.149,2.939,0.246,0.903,-0.151,1.005,0.122,1.160,0.916,-0.793,60.000,19653.000,1.000
0.214,1.065,-2.622,1.591,2.258,3.921,0.883,1.866,-0.152,1.004,0.122,0.977,0.854,-0.916,60.000,19654.000,1.000
1.324,2.393,-3.061,2.026,3.919,6.599,3.395,3.985,-0.152,1.004,0.122,0.916,0.885,-0.977,60.000,19655.000,1.000
2.621,4.592,-2.090,3.757,6.560,10.454,7.121,6.906,-0.152,1.004,0.119,0.977,0.854,-0.916,60.000,19656.000,1.000
2.475,6.049,-0.733,5.494,8.514,13.656,10.189,9.112,-0.153,1.003,0.120,0.671,0.946,-0.977,60.000,19657.000,1.000
-0.620,4.716,-0.970,4.887,7.962,13.871,10.502,8.408,-0.155,1.003,0.119,0.549,0.854,-0.977,60.000,19658.000,1.000
-6.997,-0.517,-4.364,0.273,4.022,9.676,6.912,3.521,-0.156,1.003,0.121,0.580,0.916,-0.977,60.000,19659.000,1.000
-15.353,-8.749,-10.593,-7.530,-2.562,1.757,0.061,-4.434,-0.158,1.001,0.122,0.549,0.885,-0.916,60.000,19660.000,1.000
-23.173,-17.252,-17.314,-15.363,-9.590,-7.116,-7.694,-12.219,-0.155,1.000,0.124,0.427,0.916,-0.885,60.000,19661.000,1.000
-28.030,-23.135,-21.873,-20.081,-14.625,-13.853,-13.688,-16.683,-0.157,0.999,0.123,0.366,0.793,-0.854,60.000,19662.000,1.000
-28.998,-25.153,-23.309,-20.894,-16.489,-17.070,-16.624,-16.972,-0.157,0.999,0.125,0.366,0.854,-0.854,60.000,19663.000,1.000
-26.869,-23.879,-22.490,-19.202,-15.603,-17.240,-16.806,-14.475,-0.158,0.998,0.122,0.488,0.702,-0.824,60.000,19664.000,1.000
-23.239,-20.601,-20.669,-16.608,-13.169,-15.410,-15.250,-10.999,-0.158,0.997,0.123,0.336,0.671,-0.763,60.000,19665.000,1.000
-19.572,-16.533,-18.491,-13.739,-10.356,-12.454,-12.999,-7.582,-0.157,0.997,0.122,0.305,0.671,-0.763,60.000,19666.000,1.000
-16.670,-12.586,-16.078,-10.715,-7.867,-9.063,-10.770,-4.731,-0.159,0.997,0.122,0.427,0.641,-0.702,60.000,19667.000,1.000
-14.591,-9.249,-13.463,-7.989,-5.824,-5.769,-8.756,-2.950,-0.159,0.995,0.125,0.488,0.549,-0.580,60.000,19668.000,1.000
-13.039,-6.613,-10.768,-6.250,-4.041,-2.878,-6.753,-2.548,-0.157,0.994,0.124,0.671,0.549,-0.519,60.000,19669.000,1.000
-11.817,-4.529,-8.097,-5.585,-2.379,-0.391,-4.483,-3.034,-0.158,0.993,0.125,0.793,0.397,-0.549,60.000,19670.000,1.000
-11.002,-2.874,-5.566,-5.295,-0.926,1.806,-1.908,-3.258,-0.157,0.995,0.123,0.916,0.458,-0.488,60.000,19671.000,1.000
-10.896,-1.899,-3.671,-4.898,-0.040,3.443,0.543,-2.573,-0.157,0.997,0.123,0.977,0.336,-0.488,60.000,19672.000,1.000
-11.702,-2.107,-3.230,-4.841,-0.090,3.803,2.119,-1.535,-0.159,0.998,0.126,0.885,0.183,-0.488,60.000,19673.000,1.000
-13.068,-3.492,-4.486,-5.713,-0.968,2.522,2.370,-1.090,-0.158,1.001,0.127,0.916,0.153,-0.519,60.000,19674.000,1.000
-14.149,-5.157,-6.461,-7.110,-2.010,0.262,1.599,-1.353,-0.157,1.001,0.126,0.854,0.092,-0.397,60.000,19675.000,1.000
-14.291,-6.008,-7.632,-7.902,-2.584,-1.735,0.564,-1.624,-0.157,1.004,0.125,0.885,0.000,-0.305,60.000,19676.000,1.000
-13.514,-5.702,-7.220,-7.561,-2.601,-2.673,-0.158,-1.449,-0.157,1.006,0.126,0.824,0.122,-0.305,60.000,19677.000,1.000
-12.236,-4.712,-5.614,-6.692,-2.301,-2.594,-0.365,-1.105,-0.155,1.005,0.125,0.702,-0.031,-0.336,60.000,19678.000,1.000
-10.699,-3.531,-3.581,-6.045,-1.677,-1.775,0.133,-0.860,-0.156,1.003,0.124,0.580,-0.031,-0.366,60.000,19679.000,1.000
-8.863,-2.123,-1.426,-5.467,-0.453,-0.151,1.620,-0.271,-0.156,1.003,0.124,0.458,0.092,-0.397,60.000,19680.000,1.000
-6.840,-0.300,0.888,-4.275,1.266,2.308,3.919,1.243,-0.155,1.002,0.124,0.397,0.031,-0.366,60.000,19681.000,1.000
-5.117,1.640,3.083,-2.398,2.748,4.938,6.086,3.395,-0.154,0.999,0.125,0.336,0.061,-0.488,60.000,19682.000,1.000
-4.072,3.028,4.563,-0.594,3.331,6.554,7.060,5.084,-0.154,0.996,0.125,0.427,0.183,-0.458,60.000,19683.000,1.000
-3.493,3.517,5.112,0.521,3.132,6.412,6.574,5.486,-0.151,0.995,0.126,0.336,0.214,-0.458,60.000,19684.000,1.000
-2.786,3.444,5.284,1.238,2.850,4.944,5.338,4.899,-0.151,0.994,0.123,0.458,0.275,-0.458,60.000,19685.000,1.000
-1.637,3.407,5.802,2.271,2.964,3.310,4.284,4.340,-0.151,0.995,0.125,0.427,0.397,-0.488,60.000,19686.000,1.000
-0.378,3.540,6.591,3.586,3.234,2.189,3.665,4.345,-0.150,0.992,0.123,0.549,0.427,-0.397,60.000,19687.000,1.000
0.362,3.416,6.670,4.123,3.070,1.339,3.134,4.444,-0.149,0.992,0.122,0.610,0.549,-0.458,60.000,19688.000,1.000
0.313,2.667,5.212,2.963,2.293,0.411,2.540,4.000,-0.150,0.991,0.123,0.702,0.671,-0.488,60.000,19689.000,1.000
-0.260,1.470,2.534,0.558,1.337,-0.247,2.266,3.244,-0.151,0.991,0.125,0.793,0.793,-0.427,60.000,19690.000,1.000
-0.904,0.335,-0.095,-1.501,0.761,0.043,2.725,3.129,-0.149,0.991,0.123,0.916,0.885,-0.397,60.000,19691.000,1.000
-1.226,-0.337,-1.403,-1.838,0.903,1.383,3.895,4.313,-0.151,0.992,0.122,1.038,0.885,-0.488,60.000,19692.000,1.000
-0.834,-0.343,-0.842,-0.246,1.991,3.234,5.517,6.583,-0.153,0.993,0.122,1.099,0.977,-0.549,60.000,19693.000,1.000
0.539,0.377,1.203,2.482,3.992,4.963,7.340,9.112,-0.156,0.993,0.122,1.068,1.068,-0.702,60.000,19694.000,1.000
2.717,1.613,3.708,5.340,6.216,6.117,8.931,11.092,-0.157,0.993,0.122,0.946,1.129,-0.763,60.000,19695.000,1.000
5.161,3.032,5.820,7.803,7.681,6.618,9.826,12.304,-0.158,0.997,0.122,1.099,1.129,-0.916,60.000,19696.000,1.000
7.434,4.569,7.415,9.807,8.056,6.908,10.043,13.066,-0.158,0.999,0.125,1.099,1.129,-0.977,60.000,19697.000,1.000
9.352,6.327,8.661,11.111,7.786,7.440,9.951,13.523,-0.158,1.001,0.123,1.038,1.129,-1.007,60.000,19698.000,1.000
10.836,8.190,9.461,11.189,7.429,8.142,9.732,13.377,-0.159,1.003,0.126,0.793,0.977,-1.068,60.000,19699.000,1.000
11.942,9.976,9.851,10.092,7.360,8.845,9.460,12.620,-0.160,1.005,0.127,0.916,0.977,-1.068,60.000,19700.000,1.000
12.855,11.701,10.402,8.856,7.833,9.832,9.487,12.014,-0.158,1.005,0.126,0.671,1.007,-1.099,60.000,19701.000,1.000
13.620,13.241,11.558,8.458,8.797,11.325,10.127,12.255,-0.158,1.007,0.128,0.549,0.916,-1.129,60.000,19702.000,1.000
14.014,13.969,12.831,8.666,9.678,12.688,11.008,12.959,-0.158,1.006,0.126,0.427,1.038,-1.160,60.000,19703.000,1.000
13.800,13.241,13.146,8.397,9.700,12.773,11.227,13.032,-0.158,1.005,0.128,0.275,0.946,-1.068,60.000,19704.000,1.000
12.947,11.207,11.950,7.063,8.471,11.122,10.234,11.925,-0.159,1.005,0.129,0.183,0.916,-1.038,60.000,19705.000,1.000
11.504,8.830,9.645,5.099,6.203,8.439,8.247,10.067,-0.159,1.006,0.127,0.061,0.854,-0.916,60.000,19706.000,1.000
9.399,7.036,6.930,3.134,3.418,5.717,5.722,7.987,-0.156,1.005,0.128,-0.031,0.977,-0.885,60.000,19707.000,1.000
6.581,6.039,4.126,1.172,0.639,3.365,2.904,5.571,-0.156,1.004,0.128,-0.122,1.038,-0.763,60.000,19708.000,1.000
3.426,5.601,1.430,-1.001,-1.560,1.512,0.197,2.639,-0.156,1.001,0.130,-0.275,1.068,-0.732,60.000,19709.000,1.000
0.725,5.565,-0.613,-3.012,-2.647,0.544,-1.641,-0.205,-0.157,1.000,0.129,-0.336,1.099,-0.641,60.000,19710.000,1.000
-0.956,5.856,-1.377,-4.085,-2.549,0.710,-2.141,-1.898,-0.157,0.998,0.128,-0.336,1.160,-0.519,60.000,19711.000,1.000
-1.773,6.191,-0.798,-3.984,-1.722,1.582,-1.540,-1.972,-0.159,0.998,0.129,-0.275,1.312,-0.336,60.000,19712.000,1.000
-2.272,6.073,0.444,-3.426,-0.782,2.231,-0.437,-1.054,-0.158,0.994,0.130,-0.244,1.221,-0.336,60.000,19713.000,1.000
-2.791,5.093,1.375,-3.422,-0.189,1.924,0.678,-0.252,-0.160,0.993,0.128,-0.122,1.160,-0.183,60.000,19714.000,1.000
-3.300,3.288,1.482,-4.202,-0.143,0.759,1.677,-0.018,-0.159,0.993,0.127,-0.122,1.068,-0.122,60.000,19715.000,1.000
-3.623,1.139,1.030,-4.966,-0.584,-0.466,2.656,0.174,-0.161,0.994,0.127,0.153,1.068,0.000,60.000,19716.000,1.000
-3.675,-0.869,0.564,-4.828,-1.310,-1.205,3.553,0.878,-0.162,0.993,0.127,0.244,1.099,0.122,60.000,19717.000,1.000
-3.576,-2.624,0.240,-3.854,-2.107,-1.779,4.053,1.778,-0.161,0.993,0.129,0.305,1.068,0.153,60.000,19718.000,1.000
-3.547,-4.244,-0.144,-2.877,-2.781,-2.823,3.923,2.080,-0.159,0.995,0.129,0.275,1.099,0.153,60.000,19719.000,1.000
-3.681,-5.671,-0.526,-2.358,-3.147,-4.365,3.278,1.610,-0.158,0.995,0.130,0.214,1.099,0.244,60.000,19720.000,1.000
-3.936,-6.629,-0.469,-1.898,-3.145,-5.836,2.406,1.032,-0.158,0.996,0.132,0.366,1.068,0.214,60.000,19721.000,1.000
-4.398,-7.090,0.115,-1.121,-3.050,-6.962,1.389,0.847,-0.157,0.996,0.131,0.366,1.068,0.122,60.000,19722.000,1.000
-5.407,-7.588,0.467,-0.629,-3.482,-8.276,-0.078,0.551,-0.156,0.996,0.132,0.366,0.946,0.214,60.000,19723.000,1.000
-7.318,-8.911,-0.501,-1.565,-5.080,-10.670,-2.507,-0.913,-0.155,0.995,0.130,0.427,1.038,0.214,60.000,19724.000,1.000
-10.101,-11.369,-3.140,-4.209,-8.002,-14.425,-6.040,-3.858,-0.153,0.994,0.132,0.519,0.977,0.275,60.000,19725.000,1.000
-13.070,-14.337,-6.550,-7.340,-11.584,-18.643,-9.898,-7.206,-0.154,0.997,0.132,0.519,1.007,0.305,60.000,19726.000,1.000
-15.227,-16.755,-9.395,-9.391,-14.689,-21.835,-12.766,-9.424,-0.152,0.997,0.133,0.549,1.099,0.305,60.000,19727.000,1.000
-16.138,-18.197,-11.300,-10.152,-16.612,-23.215,-13.947,-10.125,-0.153,0.997,0.134,0.702,1.190,0.366,60.000,19728.000,1.000
-16.271,-19.108,-13.012,-10.805,-17.529,-23.129,-13.909,-10.309,-0.151,0.998,0.133,0.549,1.221,0.366,60.000,19729.000,1.000
-16.301,-19.869,-15.021,-12.176,-17.952,-22.212,-13.583,-10.928,-0.151,0.995,0.131,0.702,1.343,0.244,60.000,19730.000,1.000
-16.332,-20.069,-16.612,-13.607,-18.025,-20.621,-13.438,-11.801,-0.151,0.997,0.130,0.732,1.465,0.244,60.000,19731.000,1.000
-15.928,-18.990,-16.671,-13.865,-17.504,-18.299,-13.333,-12.165,-0.152,0.998,0.131,0.610,1.617,0.214,60.000,19732.000,1.000
-14.641,-16.544,-15.014,-12.641,-16.198,-15.631,-12.984,-11.800,-0.153,0.998,0.133,0.763,1.770,0.305,60.000,19733.000,1.000
-12.428,-13.499,-12.540,-10.698,-14.298,-13.508,-12.421,-11.208,-0.153,0.997,0.131,0.732,1.892,0.214,60.000,19734.000,1.000
-9.690,-10.841,-10.237,-8.798,-12.322,-12.641,-12.002,-10.867,-0.151,0.996,0.127,0.732,1.831,0.336,60.000,19735.000,1.000
-6.968,-9.087,-8.384,-7.021,-10.812,-12.971,-12.053,-10.740,-0.151,0.995,0.129,0.702,1.923,0.275,60.000,19736.000,1.000
-4.667,-8.276,-6.847,-5.314,-10.121,-13.950,-12.665,-10.676,-0.152,0.995,0.129,0.763,2.014,0.214,60.000,19737.000,1.000
-2.998,-8.313,-5.741,-4.198,-10.312,-15.157,-13.710,-10.916,-0.154,0.996,0.128,0.854,1.923,0.183,60.000,19738.000,1.000
-1.998,-8.978,-5.391,-4.422,-11.118,-16.352,-14.878,-11.796,-0.153,0.997,0.131,0.946,1.953,0.153,60.000,19739.000,1.000
-1.581,-9.744,-5.729,-5.986,-12.084,-17.246,-15.852,-13.086,-0.153,0.996,0.128,0.763,1.984,0.122,60.000,19740.000,1.000
-1.552,-9.853,-6.095,-7.857,-12.741,-17.449,-16.407,-13.891,-0.149,0.995,0.128,0.763,2.014,0.031,60.000,19741.000,1.000
-1.563,-8.673,-5.700,-8.759,-12.576,-16.586,-16.215,-13.296,-0.151,0.995,0.126,0.793,2.014,0.061,60.000,19742.000,1.000
-1.255,-6.142,-4.274,-8.237,-11.178,-14.606,-14.917,-11.189,-0.154,0.997,0.128,0.977,1.923,-0.061,60.000,19743.000,1.000
-0.531,-2.932,-2.210,-6.818,-8.660,-12.103,-12.662,-8.408,-0.155,0.996,0.126,0.916,1.862,-0.122,60.000,19744.000,1.000
0.534,0.098,0.040,-5.060,-5.693,-9.955,-10.198,-5.892,-0.156,0.999,0.128,0.854,1.740,-0.214,60.000,19745.000,1.000
2.064,2.728,2.663,-2.708,-2.773,-8.378,-8.044,-3.724,-0.154,0.999,0.127,0.916,1.709,-0.183,60.000,19746.000,1.000
4.377,5.442,6.252,0.849,0.336,-6.660,-5.846,-1.265,-0.156,0.999,0.129,0.763,1.587,-0.214,60.000,19747.000,1.000
7.475,8.494,10.643,5.304,4.004,-4.215,-3.062,1.673,-0.157,1.001,0.129,0.854,1.587,-0.336,60.000,19748.000,1.000
10.799,11.255,14.386,9.148,7.754,-1.549,-0.017,4.229,-0.156,1.001,0.127,0.793,1.495,-0.336,60.000,19749.000,1.000
13.749,12.876,16.013,11.129,10.497,0.346,2.312,5.481,-0.155,1.001,0.129,0.824,1.312,-0.336,60.000,19750.000,1.000
16.173,13.260,15.537,11.495,11.575,1.143,3.299,5.514,-0.154,1.003,0.127,0.702,1.282,-0.336,60.000,19751.000,1.000
18.213,13.056,14.212,11.332,11.174,1.237,3.042,5.018,-0.153,1.002,0.130,0.641,1.343,-0.397,60.000,19752.000,1.000
20.071,13.070,13.239,11.303,10.078,1.183,2.201,4.417,-0.157,1.003,0.129,0.732,1.190,-0.427,60.000,19753.000,1.000
22.029,13.939,13.198,11.620,9.338,1.524,1.764,3.927,-0.156,1.001,0.128,0.671,1.068,-0.305,60.000,19754.000,1.000
24.297,15.871,14.230,12.635,9.673,2.655,2.420,3.902,-0.155,0.999,0.129,0.641,1.038,-0.275,60.000,19755.000,1.000
26.670,18.359,16.055,14.665,10.871,4.486,3.934,4.516,-0.154,0.998,0.125,0.458,1.007,-0.214,60.000,19756.000,1.000
28.558,20.389,17.909,17.316,12.040,6.411,5.378,5.322,-0.154,0.998,0.126,0.580,1.007,-0.092,60.000,19757.000,1.000
29.657,21.235,18.970,19.522,12.585,7.837,6.112,5.537,-0.153,0.995,0.127,0.580,0.946,-0.122,60.000,19758.000,1.000
30.477,21.093,19.085,20.527,12.776,8.792,6.396,4.896,-0.153,0.994,0.126,0.702,0.885,-0.153,60.000,19759.000,1.000
31.921,20.799,18.922,20.646,13.272,9.851,6.939,4.006,-0.155,0.992,0.128,0.763,0.732,-0.183,60.000,19760.000,1.000
34.414,20.993,19.294,20.871,14.301,11.440,7.989,3.733,-0.154,0.992,0.127,0.702,0.580,-0.275,60.000,19761.000,1.000
37.692,21.712,20.434,21.780,15.547,13.431,9.191,4.328,-0.154,0.994,0.125,0.946,0.519,-0.183,60.000,19762.000,1.000
41.312,22.714,21.922,23.012,16.678,15.457,10.248,5.281,-0.155,0.995,0.123,0.854,0.580,-0.153,60.000,19763.000,1.000
44.934,23.857,23.141,23.817,17.638,17.252,11.254,5.916,-0.156,0.998,0.126,0.916,0.580,-0.183,60.000,19764.000,1.000
48.098,25.047,23.748,23.889,18.372,18.634,12.236,6.039,-0.155,0.999,0.125,0.854,0.427,-0.275,60.000,19765.000,1.000
50.273,26.187,23.988,23.683,18.804,19.624,13.026,6.177,-0.155,0.997,0.123,0.732,0.214,-0.397,60.000,19766.000,1.000
51.442,27.397,24.646,24.048,19.283,20.671,13.750,7.210,-0.155,0.997,0.126,0.641,0.122,-0.427,60.000,19767.000,1.000
52.211,28.858,26.356,25.340,20.460,22.110,14.688,9.424,-0.152,0.997,0.126,0.549,-0.031,-0.580,60.000,19768.000,1.000
53.076,30.347,28.904,26.975,22.484,23.439,15.597,12.015,-0.152,0.998,0.125,0.549,-0.031,-0.458,60.000,19769.000,1.000
53.858,31.375,31.511,28.124,24.750,23.819,15.897,13.923,-0.152,0.998,0.127,0.580,-0.092,-0.488,60.000,19770.000,1.000
53.918,31.720,33.597,28.579,26.468,23.138,15.473,14.836,-0.151,1.000,0.127,0.519,0.061,-0.610,60.000,19771.000,1.000
52.680,31.389,34.810,28.477,27.099,21.920,14.665,14.898,-0.151,1.000,0.126,0.336,0.000,-0.641,60.000,19772.000,1.000
50.011,30.233,34.571,27.483,26.312,20.379,13.558,13.779,-0.152,1.001,0.129,0.305,0.092,-0.610,60.000,19773.000,1.000
46.310,28.034,32.274,24.951,23.988,18.236,11.837,10.814,-0.149,1.000,0.132,0.122,0.061,-0.580,60.000,19774.000,1.000
42.219,24.962,28.121,20.956,20.388,15.474,9.404,6.131,-0.150,1.000,0.128,0.092,0.061,-0.610,60.000,19775.000,1.000
38.217,21.632,23.365,16.657,16.170,12.702,6.719,1.103,-0.150,1.000,0.129,0.153,0.183,-0.580,60.000,19776.000,1.000
34.544,18.701,19.445,13.387,12.165,10.607,4.468,-2.641,-0.149,0.999,0.126,0.183,0.214,-0.549,60.000,19777.000,1.000
31.360,16.503,17.011,11.554,9.129,9.351,3.120,-4.412,-0.148,0.998,0.130,0.214,0.275,-0.397,60.000,19778.000,1.000
28.732,15.028,15.870,10.639,7.521,8.639,2.744,-4.536,-0.150,0.996,0.126,0.214,0.397,-0.458,60.000,19779.000,1.000
26.476,14.110,15.600,10.070,7.277,8.167,2.998,-3.638,-0.149,0.996,0.126,0.000,0.458,-0.488,60.000,19780.000,1.000
24.148,13.521,15.846,9.721,7.745,7.787,3.250,-2.210,-0.148,0.997,0.128,0.000,0.519,-0.427,60.000,19781.000,1.000
21.288,12.900,16.112,9.500,8.059,7.278,2.909,-0.799,-0.148,0.998,0.128,0.092,0.610,-0.397,60.000,19782.000,1.000
17.695,11.839,15.706,8.897,7.726,6.292,1.816,-0.151,-0.150,1.000,0.129,0.122,0.610,-0.336,60.000,19783.000,1.000
13.488,10.149,14.083,7.273,6.766,4.644,0.315,-0.846,-0.152,0.998,0.129,0.122,0.641,-0.275,60.000,19784.000,1.000
8.986,7.987,11.242,4.629,5.332,2.580,-1.089,-2.699,-0.153,0.999,0.132,-0.092,0.763,-0.183,60.000,19785.000,1.000
4.514,5.763,7.819,1.820,3.526,0.766,-2.019,-4.679,-0.154,0.998,0.129,0.000,0.702,-0.214,60.000,19786.000,1.000
0.332,3.931,4.676,-0.196,1.635,-0.001,-2.221,-5.631,-0.153,0.997,0.127,-0.031,0.763,-0.305,60.000,19787.000,1.000
-3.439,2.667,2.201,-1.314,0.098,0.551,-1.631,-5.213,-0.152,1.000,0.130,-0.061,0.702,-0.397,60.000,19788.000,1.000
-7.164,1.504,-0.122,-2.444,-1.100,1.572,-0.753,-4.204,-0.151,1.000,0.130,0.000,0.824,-0.427,60.000,19789.000,1.000
-11.894,-0.599,-3.333,-4.776,-2.831,1.416,-0.733,-3.909,-0.150,1.001,0.132,-0.183,0.854,-0.519,60.000,19790.000,1.000
-18.717,-4.607,-8.130,-8.927,-6.311,-1.277,-2.771,-5.341,-0.148,1.002,0.132,-0.122,0.946,-0.519,60.000,19791.000,1.000
-27.737,-10.700,-14.376,-14.724,-12.055,-6.813,-7.320,-8.849,-0.148,1.000,0.133,-0.305,0.916,-0.488,60.000,19792.000,1.000
-37.808,-18.056,-21.252,-21.465,-19.212,-14.359,-13.655,-14.072,-0.147,1.001,0.132,-0.336,0.946,-0.488,60.000,19793.000,1.000
-47.267,-25.244,-27.742,-28.152,-25.982,-22.266,-20.209,-19.982,-0.149,1.000,0.128,-0.458,1.007,-0.458,60.000,19794.000,1.000
-54.955,-31.019,-33.112,-33.706,-30.908,-28.761,-25.579,-25.196,-0.150,1.000,0.130,-0.580,1.190,-0.458,60.000,19795.000,1.000
-60.675,-34.930,-37.164,-37.401,-33.801,-32.821,-29.280,-28.670,-0.149,1.000,0.131,-0.580,1.282,-0.610,60.000,19796.000,1.000
-64.942,-37.296,-40.230,-39.402,-35.476,-34.577,-31.619,-30.359,-0.150,0.998,0.130,-0.488,1.282,-0.671,60.000,19797.000,1.000
-68.327,-38.698,-42.889,-40.716,-36.770,-34.887,-32.990,-31.119,-0.150,0.996,0.132,-0.397,1.312,-0.671,60.000,19798.000,1.000
-70.902,-39.407,-45.369,-42.132,-37.796,-34.406,-33.341,-31.701,-0.151,0.994,0.136,-0.244,1.373,-0.610,60.000,19799.000,1.000
-72.341,-39.256,-47.131,-43.186,-37.987,-33.099,-32.268,-31.797,-0.150,0.996,0.136,-0.153,1.343,-0.580,60.000,19800.000,1.000
-72.556,-38.074,-47.284,-42.549,-36.768,-30.713,-29.587,-30.348,-0.153,0.995,0.136,-0.092,1.343,-0.732,60.000,19801.000,1.000
-71.922,-36.144,-45.495,-39.534,-34.103,-27.507,-25.758,-26.878,-0.152,0.996,0.134,-0.061,1.343,-0.732,60.000,19802.000,1.000
-70.933,-34.182,-42.416,-35.060,-30.539,-24.413,-21.829,-22.407,-0.153,0.995,0.135,0.092,1.373,-0.763,60.000,19803.000,1.000
-69.879,-32.857,-39.189,-30.995,-26.921,-22.394,-18.900,-18.824,-0.155,0.992,0.135,0.092,1.343,-0.916,60.000,19804.000,1.000
-68.674,-32.120,-36.397,-28.440,-23.848,-21.400,-17.307,-17.165,-0.155,0.995,0.132,0.183,1.404,-0.977,60.000,19805.000,1.000
-66.847,-30.964,-33.571,-26.812,-21.220,-20.024,-16.219,-16.676,-0.154,0.996,0.134,0.397,1.221,-1.007,60.000,19806.000,1.000
-63.969,-28.284,-30.020,-24.907,-18.523,-16.784,-14.424,-15.880,-0.156,0.995,0.133,0.427,1.282,-1.068,60.000,19807.000,1.000
-60.369,-24.182,-26.098,-22.621,-15.680,-11.920,-11.650,-14.342,-0.156,0.998,0.133,0.458,1.099,-1.099,60.000,19808.000,1.000
-57.179,-20.187,-23.220,-21.089,-13.351,-7.416,-8.819,-12.926,-0.156,0.998,0.136,0.488,1.190,-0.946,60.000,19809.000,1.000
-55.403,-17.905,-22.399,-21.045,-12.161,-5.000,-6.876,-12.297,-0.156,1.001,0.135,0.458,1.007,-1.007,60.000,19810.000,1.000
-55.096,-17.727,-23.155,-21.722,-11.963,-4.687,-5.778,-11.861,-0.155,1.001,0.134,0.610,0.916,-0.977,60.000,19811.000,1.000
-55.622,-19.088,-24.206,-21.875,-12.146,-5.566,-4.946,-10.667,-0.155,1.000,0.134,0.641,0.824,-0.977,60.000,19812.000,1.000
-56.348,-21.394,-24.809,-21.329,-12.317,-7.174,-4.171,-8.824,-0.156,1.001,0.135,0.610,0.854,-0.916,60.000,19813.000,1.000
-56.814,-24.168,-24.977,-20.872,-12.351,-9.459,-3.626,-7.308,-0.156,1.000,0.133,0.610,0.854,-0.854,60.000,19814.000,1.000
-56.554,-26.605,-24.672,-20.878,-12.049,-11.876,-3.346,-6.582,-0.153,1.000,0.131,0.702,0.793,-0.702,60.000,19815.000,1.000
-55.078,-27.544,-23.307,-20.659,-11.038,-13.261,-3.075,-6.006,-0.156,0.999,0.133,0.793,0.732,-0.641,60.000,19816.000,1.000
-52.062,-26.103,-20.253,-19.248,-8.966,-12.669,-2.495,-4.673,-0.158,0.998,0.134,0.854,0.732,-0.610,60.000,19817.000,1.000
-47.601,-22.370,-15.756,-16.522,-5.787,-10.092,-1.379,-2.495,-0.158,0.997,0.134,0.946,0.580,-0.610,60.000,19818.000,1.000
-42.289,-17.432,-11.027,-13.297,-1.891,-6.349,0.390,-0.235,-0.156,0.996,0.131,1.099,0.610,-0.549,60.000,19819.000,1.000
-36.958,-12.643,-7.240,-10.360,2.030,-2.382,2.810,1.469,-0.159,0.994,0.131,1.221,0.549,-0.580,60.000,19820.000,1.000
-32.294,-8.907,-4.684,-7.773,5.290,1.238,5.739,2.751,-0.159,0.994,0.130,1.282,0.427,-0.458,60.000,19821.000,1.000
-28.688,-6.635,-3.016,-5.340,7.439,4.153,8.851,4.015,-0.156,0.996,0.131,1.373,0.366,-0.488,60.000,19822.000,1.000
-26.210,-6.014,-2.015,-3.444,8.304,5.845,11.619,5.129,-0.157,0.994,0.131,1.404,0.366,-0.488,60.000,19823.000,1.000
-24.621,-6.966,-1.736,-2.888,7.958,5.831,13.501,5.558,-0.155,0.993,0.133,1.587,0.305,-0.458,60.000,19824.000,1.000
-23.453,-8.891,-2.025,-3.820,6.736,4.342,14.303,5.277,-0.156,0.994,0.132,1.587,0.305,-0.488,60.000,19825.000,1.000
-22.163,-10.754,-2.234,-5.200,5.243,2.574,14.369,5.152,-0.155,0.993,0.132,1.617,0.336,-0.458,60.000,19826.000,1.000
-20.315,-11.630,-1.704,-5.683,4.202,1.968,14.404,6.148,-0.154,0.995,0.130,1.648,0.336,-0.519,60.000,19827.000,1.000
-17.707,-11.160,-0.397,-4.814,4.189,3.222,15.092,8.380,-0.154,0.995,0.130,1.740,0.366,-0.488,60.000,19828.000,1.000
-14.401,-9.454,1.197,-3.043,5.421,6.023,16.747,11.173,-0.154,0.997,0.126,1.831,0.275,-0.458,60.000,19829.000,1.000
-10.803,-6.834,2.650,-0.932,7.542,9.439,19.038,13.796,-0.153,0.999,0.127,1.831,0.305,-0.427,60.000,19830.000,1.000
-7.701,-3.882,3.763,1.160,9.535,12.311,20.943,15.741,-0.153,1.000,0.127,1.801,0.183,-0.427,60.000,19831.000,1.000
-5.919,-1.544,4.263,2.735,10.176,13.471,21.193,16.446,-0.153,1.000,0.129,1.770,0.275,-0.519,60.000,19832.000,1.000
-5.737,-0.789,3.673,3.024,8.832,12.110,19.023,15.235,-0.152,1.000,0.129,1.709,0.275,-0.458,60.000,19833.000,1.000
-6.698,-1.999,1.688,1.543,5.853,8.321,14.716,11.883,-0.151,1.002,0.130,1.709,0.336,-0.458,60.000,19834.000,1.000
-7.918,-4.600,-1.260,-1.138,2.293,3.415,9.596,7.279,-0.153,1.000,0.130,1.648,0.458,-0.458,60.000,19835.000,1.000
-8.537,-7.298,-3.940,-3.447,-0.658,-0.631,5.349,3.220,-0.152,0.999,0.129,1.556,0.488,-0.488,60.000,19836.000,1.000
-8.088,-8.916,-5.164,-4.063,-2.266,-2.525,2.985,1.106,-0.152,1.001,0.129,1.556,0.580,-0.488,60.000,19837.000,1.000
-6.654,-9.167,-4.774,-3.155,-2.580,-2.600,2.265,0.810,-0.153,0.999,0.128,1.465,0.580,-0.427,60.000,19838.000,1.000
-4.690,-8.531,-3.582,-2.050,-2.160,-2.224,2.185,1.070,-0.153,0.998,0.127,1.404,0.641,-0.458,60.000,19839.000,1.000
-2.702,-7.515,-2.414,-1.718,-1.549,-2.403,1.899,0.889,-0.151,0.997,0.127,1.465,0.763,-0.549,60.000,19840.000,1.000
-1.064,-6.292,-1.513,-1.961,-1.052,-3.177,1.122,0.262,-0.151,0.996,0.127,1.526,0.793,-0.458,60.000,19841.000,1.000
0.116,-4.879,-0.768,-2.024,-0.699,-4.050,0.039,-0.300,-0.153,0.996,0.127,1.465,0.916,-0.519,60.000,19842.000,1.000
1.160,-3.237,-0.095,-1.535,-0.157,-4.444,-0.763,-0.469,-0.152,0.997,0.126,1.465,0.885,-0.488,60.000,19843.000,1.000
2.769,-1.131,0.646,-0.593,1.179,-3.682,-0.385,-0.118,-0.152,0.998,0.125,1.495,0.916,-0.610,60.000,19844.000,1.000
5.505,1.749,1.770,0.765,3.629,-1.166,1.811,0.977,-0.152,0.996,0.125,1.404,0.946,-0.580,60.000,19845.000,1.000
9.113,5.201,3.388,2.622,6.624,2.877,5.330,2.975,-0.152,0.996,0.125,1.373,1.099,-0.549,60.000,19846.000,1.000
12.427,8.195,4.880,4.632,8.819,6.964,8.495,5.442,-0.152,0.997,0.125,1.343,1.038,-0.580,60.000,19847.000,1.000
14.245,9.557,5.202,5.930,9.129,9.244,9.684,7.393,-0.153,0.997,0.126,1.434,1.068,-0.641,60.000,19848.000,1.000
14.340,9.047,3.936,5.932,7.664,8.997,8.645,8.155,-0.152,0.997,0.128,1.343,1.129,-0.671,60.000,19849.000,1.000
13.441,7.468,1.786,5.021,5.460,7.066,6.474,7.997,-0.153,0.997,0.125,1.251,1.068,-0.671,60.000,19850.000,1.000
12.344,5.739,-0.130,4.187,3.391,4.868,4.439,7.745,-0.152,0.997,0.124,1.190,1.221,-0.671,60.000,19851.000,1.000
11.331,4.158,-1.291,4.010,1.650,3.249,3.101,7.875,-0.153,0.997,0.125,1.099,1.160,-0.671,60.000,19852.000,1.000
10.440,2.600,-1.947,4.197,0.217,2.291,2.457,8.153,-0.154,0.996,0.124,1.099,1.160,-0.702,60.000,19853.000,1.000
10.027,1.235,-2.382,4.250,-0.559,1.911,2.544,8.210,-0.153,0.999,0.125,1.129,1.221,-0.549,60.000,19854.000,1.000
10.728,0.755,-2.221,4.400,-0.103,2.310,3.565,8.302,-0.155,0.999,0.125,1.068,1.099,-0.519,60.000,19855.000,1.000
12.782,1.754,-0.744,5.463,1.675,3.683,5.452,9.152,-0.154,0.998,0.124,1.007,1.190,-0.458,60.000,19856.000,1.000
15.609,3.990,2.180,7.712,4.057,5.619,7.512,10.929,-0.155,0.998,0.125,0.977,1.251,-0.427,60.000,19857.000,1.000
18.296,6.478,5.705,10.261,6.028,7.085,8.721,12.659,-0.154,1.000,0.127,0.916,1.251,-0.427,60.000,19858.000,1.000
20.350,8.309,8.633,11.845,7.037,7.244,8.429,12.952,-0.154,1.000,0.128,0.916,1.282,-0.427,60.000,19859.000,1.000
21.851,9.243,10.332,12.054,7.163,6.206,6.761,11.301,-0.153,1.000,0.129,0.854,1.221,-0.397,60.000,19860.000,1.000
23.001,9.548,10.998,11.570,6.680,4.814,4.306,8.461,-0.154,0.999,0.127,0.977,1.190,-0.366,60.000,19861.000,1.000
23.733,9.422,11.065,11.185,5.672,3.711,1.569,5.506,-0.155,1.001,0.125,0.732,1.221,-0.458,60.000,19862.000,1.000
23.761,8.648,10.478,10.779,4.026,2.697,-1.247,2.767,-0.154,1.003,0.128,0.671,1.221,-0.458,60.000,19863.000,1.000
22.945,6.891,8.795,9.573,1.692,1.107,-4.026,-0.097,-0.155,1.001,0.131,0.549,1.312,-0.458,60.000,19864.000,1.000
21.607,4.369,6.040,7.381,-1.025,-1.197,-6.443,-3.083,-0.156,0.999,0.128,0.488,1.282,-0.427,60.000,19865.000,1.000
20.388,2.038,3.129,5.164,-3.509,-3.469,-8.040,-5.425,-0.155,0.998,0.127,0.305,1.160,-0.366,60.000,19866.000,1.000
19.806,0.885,1.239,4.107,-5.157,-4.821,-8.572,-6.361,-0.155,0.998,0.133,0.458,1.190,-0.397,60.000,19867.000,1.000
20.008,1.127,0.885,4.458,-5.653,-5.086,-8.230,-6.031,-0.156,0.996,0.128,0.519,1.160,-0.458,60.000,19868.000,1.000
20.749,2.124,1.650,5.465,-5.121,-4.852,-7.537,-5.368,-0.155,0.995,0.127,0.519,1.099,-0.397,60.000,19869.000,1.000
21.510,2.968,2.699,6.275,-4.124,-4.770,-7.007,-5.119,-0.158,0.992,0.128,0.732,0.946,-0.427,60.000,19870.000,1.000
21.742,3.195,3.500,6.691,-3.303,-4.928,-6.753,-5.077,-0.156,0.992,0.128,0.702,0.916,-0.488,60.000,19871.000,1.000
21.249,3.042,4.049,7.067,-2.804,-4.837,-6.331,-4.441,-0.157,0.993,0.131,0.854,0.763,-0.427,60.000,19872.000,1.000
20.327,3.062,4.452,7.555,-2.230,-3.983,-5.185,-2.968,-0.156,0.993,0.130,0.946,0.732,-0.458,60.000,19873.000,1.000
19.504,3.536,4.577,7.813,-1.206,-2.380,-3.341,-1.426,-0.154,0.993,0.130,1.007,0.671,-0.519,60.000,19874.000,1.000
19.281,4.440,4.458,7.726,0.270,-0.461,-1.442,-0.587,-0.156,0.995,0.130,1.251,0.610,-0.397,60.000,19875.000,1.000
19.997,5.728,4.707,7.961,1.996,1.451,-0.095,-0.238,-0.157,0.994,0.131,1.099,0.641,-0.458,60.000,19876.000,1.000
21.640,7.228,5.941,9.155,3.666,3.183,0.501,0.260,-0.157,0.994,0.129,1.221,0.702,-0.458,60.000,19877.000,1.000
23.855,8.475,7.957,10.880,4.900,4.402,0.372,0.885,-0.158,0.994,0.128,1.282,0.671,-0.549,60.000,19878.000,1.000
26.287,9.104,9.987,12.058,5.525,4.802,-0.321,1.073,-0.156,0.996,0.130,1.312,0.641,-0.549,60.000,19879.000,1.000
28.799,9.382,11.682,12.296,5.810,4.643,-1.165,0.743,-0.157,0.998,0.130,1.251,0.549,-0.580,60.000,19880.000,1.000
31.300,10.059,13.446,12.355,6.246,4.739,-1.600,0.616,-0.155,0.998,0.128,1.312,0.458,-0.488,60.000,19881.000,1.000
33.482,11.547,15.712,13.149,7.098,5.711,-1.310,1.358,-0.155,1.000,0.129,1.343,0.366,-0.458,60.000,19882.000,1.000
34.906,13.410,18.168,14.575,8.214,7.315,-0.487,2.718,-0.155,1.000,0.130,1.251,0.336,-0.488,60.000,19883.000,1.000
35.395,14.804,19.957,15.642,9.208,8.693,0.348,3.789,-0.156,1.001,0.130,1.221,0.336,-0.519,60.000,19884.000,1.000
35.312,15.360,20.643,15.796,9.853,9.320,0.840,4.175,-0.154,1.003,0.132,1.251,0.305,-0.519,60.000,19885.000,1.000
35.353,15.431,20.679,15.668,10.236,9.480,1.058,4.508,-0.155,1.004,0.131,1.160,0.305,-0.580,60.000,19886.000,1.000
35.967,15.444,20.752,16.184,10.506,9.644,1.153,5.523,-0.157,1.001,0.132,0.946,0.153,-0.671,60.000,19887.000,1.000
37.079,15.362,20.944,17.347,10.681,9.832,1.098,7.016,-0.157,1.002,0.133,0.916,0.153,-0.610,60.000,19888.000,1.000
38.395,15.044,20.917,18.433,10.843,9.892,1.000,8.221,-0.157,1.002,0.130,0.854,0.153,-0.671,60.000,19889.000,1.000
39.712,14.734,20.638,19.101,11.233,10.049,1.348,8.968,-0.158,1.000,0.129,0.671,0.244,-0.641,60.000,19890.000,1.000
40.791,14.864,20.448,19.748,11.979,10.787,2.650,9.923,-0.156,0.999,0.129,0.610,0.214,-0.641,60.000,19891.000,1.000
41.286,15.574,20.555,20.768,12.997,12.363,4.994,11.688,-0.155,1.000,0.129,0.641,0.183,-0.763,60.000,19892.000,1.000
40.855,16.439,20.548,21.695,14.041,14.349,7.853,13.785,-0.154,1.000,0.128,0.519,0.183,-0.763,60.000,19893.000,1.000
39.123,16.393,19.323,21.205,14.458,15.443,9.973,14.623,-0.153,1.000,0.128,0.427,0.153,-0.732,60.000,19894.000,1.000
35.653,14.224,15.758,18.193,13.146,14.159,9.785,12.707,-0.154,0.999,0.127,0.427,0.061,-0.732,60.000,19895.000,1.000
30.276,9.465,9.656,12.854,9.224,9.967,6.383,7.943,-0.156,0.999,0.125,0.366,0.153,-0.793,60.000,19896.000,1.000
23.487,2.843,1.991,6.515,2.895,3.655,0.239,1.647,-0.152,0.998,0.129,0.305,0.183,-0.732,60.000,19897.000,1.000
16.519,-3.967,-5.562,0.634,-4.255,-3.092,-6.870,-4.437,-0.152,0.999,0.130,0.366,0.183,-0.671,60.000,19898.000,1.000
10.872,-9.069,-11.316,-3.876,-10.017,-8.414,-12.767,-9.006,-0.153,1.000,0.128,0.366,0.336,-0.610,60.000,19899.000,1.000
7.502,-11.274,-14.199,-6.619,-12.952,-11.125,-16.127,-11.469,-0.153,0.996,0.128,0.305,0.458,-0.610,60.000,19900.000,1.000
6.452,-10.582,-14.075,-7.402,-13.088,-11.082,-16.939,-11.766,-0.153,0.997,0.126,0.397,0.580,-0.549,60.000,19901.000,1.000
7.201,-7.909,-11.726,-6.272,-11.370,-8.978,-15.979,-10.206,-0.152,0.995,0.130,0.397,0.641,-0.549,60.000,19902.000,1.000
