EEG 1,EEG 2,EEG 3,EEG 4,EEG 5,EEG 6,EEG 7,EEG 8,Accelerometer X,Accelerometer Y,Accelerometer Z,Gyroscope X,Gyroscope Y,Gyroscope Z,Battery Level,Counter,Validation Indicator
-3.814,5.302,-1.113,-3.030,0.499,7.010,5.447,3.229,-0.086,1.001,-0.052,0.916,3.235,-0.458,80.000,7625.000,1.000
-4.129,5.606,-0.875,-3.022,1.109,7.072,5.202,3.350,-0.087,1.001,-0.051,0.916,3.174,-0.458,80.000,7626.000,1.000
-4.157,4.785,-0.480,-3.668,1.665,6.866,4.537,2.609,-0.088,0.999,-0.053,0.977,3.082,-0.488,80.000,7627.000,1.000
-3.790,4.430,-0.001,-4.153,1.782,6.791,3.914,2.147,-0.088,1.000,-0.052,0.885,3.082,-0.488,80.000,7628.000,1.000
-3.217,5.065,0.377,-4.120,1.244,6.546,3.129,2.173,-0.089,0.999,-0.052,0.854,3.113,-0.519,80.000,7629.000,1.000
-2.410,5.739,0.942,-3.733,0.691,5.649,1.833,2.005,-0.088,0.999,-0.053,0.977,3.021,-0.549,80.000,7630.000,1.000
-1.183,5.510,2.127,-3.257,0.952,4.117,0.211,1.184,-0.087,0.998,-0.055,0.977,3.143,-0.580,80.000,7631.000,1.000
0.311,4.765,3.707,-2.797,1.894,2.421,-1.128,0.076,-0.088,0.998,-0.058,1.038,3.052,-0.580,80.000,7632.000,1.000
1.484,4.711,4.818,-2.398,2.541,1.066,-1.732,-0.644,-0.089,0.998,-0.057,1.038,2.960,-0.549,80.000,7633.000,1.000
1.818,5.712,4.866,-2.287,2.331,0.314,-1.659,-0.932,-0.090,0.999,-0.055,0.977,2.899,-0.641,80.000,7634.000,1.000
1.476,6.809,4.204,-2.718,1.873,0.264,-1.228,-1.388,-0.090,1.000,-0.053,0.946,2.899,-0.610,80.000,7635.000,1.000
1.344,7.184,3.862,-3.398,2.322,1.092,-0.433,-2.129,-0.090,1.001,-0.055,0.916,2.930,-0.671,80.000,7636.000,1.000
2.247,7.432,4.550,-3.394,4.072,2.887,1.084,-2.191,-0.089,1.003,-0.053,0.946,2.838,-0.549,80.000,7637.000,1.000
4.162,8.708,5.994,-1.990,6.280,5.153,3.287,-0.622,-0.089,1.005,-0.056,0.793,2.899,-0.549,80.000,7638.000,1.000
6.379,10.915,7.373,0.479,7.809,6.760,5.243,2.034,-0.088,1.002,-0.057,0.854,2.777,-0.519,80.000,7639.000,1.000
8.337,12.506,8.313,2.887,8.322,6.614,5.657,3.925,-0.086,1.003,-0.053,0.763,2.747,-0.397,80.000,7640.000,1.000
10.074,12.371,9.212,4.443,8.282,4.542,4.030,3.741,-0.089,1.003,-0.054,0.793,2.686,-0.427,80.000,7641.000,1.000
11.905,11.384,10.602,5.425,8.129,1.549,1.217,2.081,-0.090,1.002,-0.055,0.763,2.716,-0.366,80.000,7642.000,1.000
13.879,11.421,12.438,6.692,7.862,-0.936,-1.296,0.720,-0.089,1.002,-0.054,0.763,2.594,-0.366,80.000,7643.000,1.000
15.709,13.042,14.251,8.606,7.487,-2.116,-2.562,0.756,-0.089,1.000,-0.053,0.824,2.594,-0.305,80.000,7644.000,1.000
17.123,14.868,15.757,10.650,7.413,-2.157,-2.615,1.828,-0.088,1.000,-0.050,0.854,2.533,-0.275,80.000,7645.000,1.000
18.074,15.399,16.982,12.065,8.025,-1.658,-2.005,3.027,-0.088,1.002,-0.048,0.793,2.502,-0.275,80.000,7646.000,1.000
18.599,14.793,17.801,12.595,8.951,-1.019,-1.187,4.030,-0.090,1.002,-0.052,0.885,2.533,-0.214,80.000,7647.000,1.000
18.559,14.287,17.687,12.401,9.158,-0.420,-0.475,4.956,-0.089,1.001,-0.050,0.702,2.594,-0.153,80.000,7648.000,1.000
17.828,14.337,16.297,11.566,8.043,-0.030,-0.247,5.509,-0.087,1.001,-0.052,0.763,2.533,-0.214,80.000,7649.000,1.000
16.785,14.239,14.297,10.146,6.328,0.200,-0.687,5.050,-0.088,1.000,-0.049,0.732,2.625,-0.214,80.000,7650.000,1.000
16.303,13.613,13.106,8.655,5.495,0.803,-1.348,3.638,-0.089,0.999,-0.053,0.580,2.533,-0.275,80.000,7651.000,1.000
16.915,13.359,13.546,7.984,6.236,2.369,-1.371,2.399,-0.089,1.002,-0.050,0.671,2.655,-0.153,80.000,7652.000,1.000
18.131,14.482,14.934,8.510,7.666,4.609,-0.494,2.314,-0.086,1.002,-0.054,0.702,2.625,-0.153,80.000,7653.000,1.000
18.865,16.340,15.770,9.476,8.283,6.132,0.366,2.868,-0.085,1.001,-0.050,0.732,2.502,-0.183,80.000,7654.000,1.000
18.472,16.896,15.181,9.600,7.485,5.587,-0.061,2.520,-0.085,0.999,-0.051,0.732,2.563,-0.153,80.000,7655.000,1.000
17.134,14.892,13.441,8.276,5.831,2.965,-2.045,0.555,-0.085,0.999,-0.050,0.793,2.594,-0.183,80.000,7656.000,1.000
15.381,11.324,11.232,6.082,4.002,-0.385,-4.584,-2.002,-0.083,1.000,-0.053,0.763,2.686,-0.122,80.000,7657.000,1.000
13.557,8.386,8.914,4.112,2.142,-2.941,-6.401,-3.511,-0.084,1.000,-0.053,0.732,2.625,-0.153,80.000,7658.000,1.000
11.838,7.185,6.699,2.929,0.343,-4.031,-7.002,-3.464,-0.084,1.001,-0.052,0.763,2.777,-0.244,80.000,7659.000,1.000
10.564,7.074,5.183,2.330,-0.731,-3.756,-6.680,-2.712,-0.083,1.001,-0.052,0.793,2.747,-0.122,80.000,7660.000,1.000
10.333,7.214,5.217,2.080,-0.210,-2.326,-5.768,-2.075,-0.085,1.002,-0.051,0.732,2.869,-0.305,80.000,7661.000,1.000
11.551,8.018,7.075,2.475,1.979,0.157,-4.255,-1.290,-0.085,1.001,-0.051,0.793,2.899,-0.336,80.000,7662.000,1.000
13.906,10.400,9.924,3.895,4.812,3.269,-2.205,0.314,-0.085,1.002,-0.052,0.793,2.899,-0.305,80.000,7663.000,1.000
16.500,13.955,12.385,6.033,7.072,6.079,-0.219,2.498,-0.084,1.000,-0.052,0.732,2.991,-0.244,80.000,7664.000,1.000
18.595,16.798,13.676,7.986,8.430,7.793,0.951,4.134,-0.084,1.001,-0.052,0.824,3.021,-0.214,80.000,7665.000,1.000
20.043,17.507,14.030,9.160,9.366,8.508,1.216,4.604,-0.083,1.000,-0.053,0.763,3.052,-0.275,80.000,7666.000,1.000
20.941,16.636,13.986,9.763,10.118,8.963,1.197,4.582,-0.083,0.999,-0.054,0.732,3.052,-0.397,80.000,7667.000,1.000
21.157,15.834,13.635,10.293,10.197,9.553,1.385,5.074,-0.085,1.000,-0.052,0.793,3.082,-0.427,80.000,7668.000,1.000
20.536,15.798,12.873,10.822,9.209,9.957,1.648,6.080,-0.086,0.999,-0.054,0.763,3.113,-0.458,80.000,7669.000,1.000
19.439,15.773,12.080,11.034,7.766,9.824,1.727,6.661,-0.086,0.999,-0.051,0.671,3.113,-0.366,80.000,7670.000,1.000
18.630,14.973,11.913,10.782,6.948,9.329,1.739,6.189,-0.087,1.000,-0.051,0.763,3.143,-0.488,80.000,7671.000,1.000
18.359,13.635,12.240,10.205,6.775,8.598,1.734,4.967,-0.085,1.000,-0.048,0.763,3.174,-0.519,80.000,7672.000,1.000
17.832,12.300,11.806,9.304,5.883,7.015,1.106,3.519,-0.084,0.999,-0.050,0.793,3.143,-0.549,80.000,7673.000,1.000
16.056,10.708,9.523,7.832,3.209,3.838,-0.935,1.815,-0.084,1.001,-0.050,0.702,3.235,-0.458,80.000,7674.000,1.000
13.205,8.222,5.976,5.825,-0.348,-0.460,-4.139,-0.319,-0.086,1.002,-0.049,0.671,3.204,-0.458,80.000,7675.000,1.000
10.766,5.251,3.156,4.020,-2.534,-3.992,-6.844,-2.225,-0.086,1.001,-0.052,0.763,3.296,-0.488,80.000,7676.000,1.000
10.095,3.493,2.554,3.404,-2.025,-4.941,-7.235,-2.528,-0.087,0.999,-0.053,0.824,3.296,-0.519,80.000,7677.000,1.000
10.992,4.183,3.731,4.167,0.270,-3.287,-5.146,-0.657,-0.088,1.000,-0.050,0.854,3.326,-0.488,80.000,7678.000,1.000
12.017,6.444,4.999,5.336,2.371,-0.818,-2.306,2.129,-0.089,1.000,-0.049,0.885,3.387,-0.397,80.000,7679.000,1.000
12.131,8.040,5.310,5.705,3.294,0.633,-0.641,3.794,-0.087,0.999,-0.049,0.824,3.387,-0.458,80.000,7680.000,1.000
11.598,7.727,5.040,5.040,3.498,0.671,-0.596,3.518,-0.087,0.999,-0.051,0.854,3.357,-0.488,80.000,7681.000,1.000
11.199,6.301,4.922,4.122,3.486,0.004,-1.319,2.260,-0.086,0.998,-0.051,0.916,3.357,-0.549,80.000,7682.000,1.000
11.009,5.115,4.776,3.663,2.764,-0.968,-2.132,1.360,-0.090,0.999,-0.048,0.916,3.265,-0.519,80.000,7683.000,1.000
10.329,4.135,3.745,3.469,0.604,-2.688,-3.320,0.991,-0.090,0.999,-0.049,1.038,3.235,-0.458,80.000,7684.000,1.000
8.604,2.069,1.490,2.790,-2.669,-5.550,-5.363,0.296,-0.091,0.998,-0.050,1.068,3.174,-0.397,80.000,7685.000,1.000
6.096,-1.629,-1.300,1.396,-5.737,-8.933,-7.856,-1.159,-0.090,0.999,-0.049,1.129,3.143,-0.427,80.000,7686.000,1.000
3.615,-5.516,-3.595,0.031,-7.583,-11.463,-9.614,-2.540,-0.091,1.001,-0.050,1.190,3.113,-0.397,80.000,7687.000,1.000
1.639,-7.573,-5.029,-0.459,-8.384,-12.288,-9.921,-2.769,-0.091,1.001,-0.050,1.129,3.052,-0.366,80.000,7688.000,1.000
-0.174,-7.684,-6.104,-0.318,-9.049,-11.999,-9.385,-2.116,-0.089,1.000,-0.050,1.007,2.930,-0.366,80.000,7689.000,1.000
-2.403,-7.778,-7.388,-0.695,-10.055,-11.974,-9.249,-2.058,-0.089,1.000,-0.048,1.038,2.838,-0.397,80.000,7690.000,1.000
-5.000,-9.314,-8.768,-2.222,-11.023,-12.869,-9.971,-3.393,-0.090,1.002,-0.046,1.068,2.869,-0.275,80.000,7691.000,1.000
-7.399,-11.560,-9.807,-4.292,-11.510,-14.143,-10.892,-5.202,-0.089,1.003,-0.049,0.916,2.808,-0.244,80.000,7692.000,1.000
-9.236,-12.721,-10.433,-5.816,-11.714,-14.950,-11.235,-5.982,-0.089,1.001,-0.049,0.977,2.777,-0.244,80.000,7693.000,1.000
-10.440,-12.120,-10.756,-6.199,-11.883,-14.911,-10.838,-5.249,-0.088,1.000,-0.050,0.946,2.716,-0.244,80.000,7694.000,1.000
-10.778,-10.679,-10.440,-5.465,-11.447,-13.915,-9.797,-3.634,-0.088,1.000,-0.052,1.007,2.594,-0.275,80.000,7695.000,1.000
-9.808,-9.404,-8.850,-3.793,-9.464,-11.723,-7.891,-1.713,-0.088,1.003,-0.048,1.007,2.502,-0.305,80.000,7696.000,1.000
-7.511,-8.068,-5.974,-1.319,-5.945,-8.229,-4.826,0.634,-0.089,1.004,-0.047,0.916,2.533,-0.275,80.000,7697.000,1.000
-4.788,-5.924,-2.923,1.491,-2.261,-4.090,-1.001,3.521,-0.091,1.005,-0.052,0.885,2.411,-0.397,80.000,7698.000,1.000
-3.000,-3.283,-1.144,3.649,0.064,-0.598,2.374,6.145,-0.092,1.004,-0.049,0.824,2.411,-0.244,80.000,7699.000,1.000
-2.750,-1.453,-1.007,4.313,0.867,1.457,4.281,7.265,-0.090,1.005,-0.051,0.885,2.350,-0.366,80.000,7700.000,1.000
-3.193,-0.857,-1.336,3.792,1.412,2.671,4.968,6.737,-0.087,1.003,-0.051,0.824,2.258,-0.336,80.000,7701.000,1.000
-2.703,0.039,-0.448,3.623,3.017,4.574,5.813,6.073,-0.086,1.002,-0.050,0.793,2.289,-0.305,80.000,7702.000,1.000
-0.378,3.076,2.267,5.163,5.740,8.053,7.869,6.907,-0.085,1.000,-0.049,0.916,2.289,-0.305,80.000,7703.000,1.000
2.883,7.628,5.646,7.882,8.286,12.030,10.464,8.867,-0.085,1.000,-0.050,0.946,2.197,-0.305,80.000,7704.000,1.000
4.853,10.345,7.554,9.374,8.974,13.935,11.488,9.549,-0.086,1.000,-0.049,0.854,2.319,-0.214,80.000,7705.000,1.000
3.590,8.148,6.340,7.339,6.702,11.663,9.198,6.838,-0.084,0.998,-0.050,0.885,2.258,-0.275,80.000,7706.000,1.000
-1.320,1.046,1.618,1.482,1.245,5.044,3.563,0.942,-0.084,0.999,-0.049,1.038,2.380,-0.244,80.000,7707.000,1.000
-8.612,-8.113,-5.700,-6.324,-6.607,-4.185,-3.874,-5.904,-0.084,0.999,-0.052,1.129,2.502,-0.244,80.000,7708.000,1.000
-15.864,-16.076,-13.534,-13.357,-14.747,-13.289,-10.990,-11.317,-0.082,0.998,-0.053,1.221,2.594,-0.153,80.000,7709.000,1.000
-20.514,-21.067,-19.250,-17.593,-20.293,-19.657,-16.023,-14.181,-0.084,1.000,-0.051,1.129,2.655,-0.061,80.000,7710.000,1.000
-21.187,-22.775,-21.007,-18.436,-21.352,-21.765,-18.087,-14.597,-0.084,1.002,-0.052,1.282,2.594,-0.153,80.000,7711.000,1.000
-18.441,-21.390,-18.928,-16.463,-18.459,-19.669,-17.300,-13.066,-0.083,1.000,-0.049,1.312,2.716,-0.092,80.000,7712.000,1.000
-14.262,-17.423,-14.896,-12.878,-13.999,-14.845,-14.640,-10.181,-0.083,0.998,-0.050,1.343,2.716,-0.122,80.000,7713.000,1.000
-10.715,-12.318,-11.058,-9.123,-10.134,-9.411,-11.492,-6.919,-0.083,0.999,-0.052,1.373,2.808,-0.183,80.000,7714.000,1.000
-8.849,-8.218,-8.370,-6.368,-7.300,-4.987,-8.832,-4.405,-0.083,0.998,-0.050,1.434,2.838,-0.092,80.000,7715.000,1.000
-8.562,-6.449,-6.556,-4.963,-4.708,-1.984,-6.681,-3.000,-0.084,0.999,-0.051,1.404,2.930,-0.275,80.000,7716.000,1.000
-9.221,-6.481,-5.288,-4.485,-2.073,-0.028,-4.558,-2.038,-0.083,0.999,-0.049,1.404,3.021,-0.275,80.000,7717.000,1.000
-10.205,-6.841,-4.927,-4.441,-0.306,1.078,-2.428,-0.838,-0.086,1.001,-0.048,1.434,3.113,-0.336,80.000,7718.000,1.000
-10.887,-6.732,-5.778,-4.725,-0.231,1.250,-0.839,0.315,-0.085,1.002,-0.048,1.373,3.143,-0.366,80.000,7719.000,1.000
-10.448,-6.349,-7.090,-5.371,-1.231,0.830,-0.154,0.514,-0.085,1.004,-0.049,1.312,3.204,-0.427,80.000,7720.000,1.000
-8.236,-5.900,-7.501,-6.174,-1.885,0.674,-0.117,-0.625,-0.082,1.002,-0.053,1.251,3.174,-0.336,80.000,7721.000,1.000
-4.499,-4.857,-6.420,-6.649,-1.618,1.388,-0.203,-2.370,-0.082,1.002,-0.050,1.221,3.143,-0.427,80.000,7722.000,1.000
-0.469,-2.528,-4.530,-6.373,-1.059,2.781,-0.185,-3.549,-0.083,1.002,-0.053,1.160,3.235,-0.610,80.000,7723.000,1.000
2.532,0.802,-2.886,-5.391,-0.835,4.205,-0.202,-3.695,-0.082,1.000,-0.052,1.221,3.265,-0.549,80.000,7724.000,1.000
4.027,3.835,-1.778,-4.160,-0.503,5.368,-0.246,-3.209,-0.084,1.000,-0.054,1.251,3.296,-0.458,80.000,7725.000,1.000
4.424,5.577,-0.756,-3.109,0.837,6.601,0.125,-2.523,-0.084,1.003,-0.054,1.221,3.387,-0.458,80.000,7726.000,1.000
4.267,6.304,0.312,-2.402,3.048,8.199,1.257,-1.628,-0.084,1.003,-0.053,1.129,3.418,-0.336,80.000,7727.000,1.000
3.611,6.941,0.767,-2.061,4.749,9.816,2.833,-0.460,-0.082,1.004,-0.053,1.160,3.601,-0.397,80.000,7728.000,1.000
2.207,7.679,0.051,-2.129,4.902,10.734,4.148,0.653,-0.083,1.001,-0.054,1.221,3.662,-0.366,80.000,7729.000,1.000
0.059,7.646,-1.415,-2.640,4.029,10.548,4.792,1.176,-0.084,1.000,-0.055,1.190,3.723,-0.397,80.000,7730.000,1.000
-2.398,6.086,-2.680,-3.471,3.427,9.508,4.930,0.972,-0.086,0.999,-0.054,1.099,3.723,-0.305,80.000,7731.000,1.000
-4.581,3.656,-3.319,-4.210,3.634,8.383,5.082,0.653,-0.088,0.998,-0.051,1.160,3.662,-0.305,80.000,7732.000,1.000
-6.139,1.946,-3.738,-4.429,4.022,7.881,5.594,0.981,-0.090,0.996,-0.052,1.190,3.632,-0.458,80.000,7733.000,1.000
-7.123,1.535,-4.618,-4.251,3.724,8.009,6.162,1.755,-0.092,0.997,-0.052,1.251,3.540,-0.458,80.000,7734.000,1.000
-7.761,1.293,-6.153,-4.352,2.662,8.200,6.082,1.819,-0.094,0.998,-0.052,1.312,3.418,-0.580,80.000,7735.000,1.000
-8.099,0.031,-7.823,-5.136,1.544,8.108,5.127,0.479,-0.094,1.000,-0.055,1.343,3.265,-0.702,80.000,7736.000,1.000
-8.012,-1.784,-8.896,-6.137,0.979,7.966,3.948,-1.485,-0.094,0.999,-0.051,1.343,3.052,-0.793,80.000,7737.000,1.000
-7.490,-2.579,-9.005,-6.455,0.938,8.108,3.433,-2.614,-0.094,1.001,-0.052,1.465,2.899,-0.885,80.000,7738.000,1.000
-6.730,-1.697,-8.155,-5.670,1.230,8.488,3.887,-2.267,-0.092,1.001,-0.054,1.373,2.716,-1.007,80.000,7739.000,1.000
-5.941,-0.176,-6.420,-4.199,2.082,8.828,4.988,-0.994,-0.092,1.003,-0.054,1.282,2.655,-0.977,80.000,7740.000,1.000
-5.214,0.635,-3.983,-2.786,3.796,9.044,6.349,0.436,-0.092,1.005,-0.056,1.282,2.563,-0.946,80.000,7741.000,1.000
-4.659,0.676,-1.441,-1.777,5.995,9.285,7.842,1.919,-0.092,1.006,-0.054,1.099,2.441,-0.885,80.000,7742.000,1.000
-4.540,0.893,0.282,-1.040,7.660,9.540,9.364,3.736,-0.090,1.009,-0.051,1.038,2.411,-0.793,80.000,7743.000,1.000
-5.085,1.571,0.628,-0.471,8.142,9.435,10.608,5.656,-0.091,1.008,-0.053,0.824,2.472,-0.824,80.000,7744.000,1.000
-6.028,1.836,0.048,-0.193,7.937,8.717,11.361,6.892,-0.089,1.009,-0.051,0.793,2.319,-0.671,80.000,7745.000,1.000
-6.503,1.094,-0.214,-0.083,8.228,7.822,11.915,7.095,-0.090,1.010,-0.052,0.580,2.289,-0.519,80.000,7746.000,1.000
-5.660,0.271,0.813,0.514,9.616,7.565,12.852,6.968,-0.088,1.009,-0.053,0.427,2.350,-0.519,80.000,7747.000,1.000
-3.480,0.853,2.932,2.141,11.499,8.162,14.265,7.497,-0.090,1.007,-0.052,0.305,2.350,-0.488,80.000,7748.000,1.000
-0.861,2.846,5.017,4.367,12.758,8.819,15.332,8.611,-0.088,1.007,-0.053,0.153,2.319,-0.336,80.000,7749.000,1.000
1.121,4.466,6.079,5.902,12.848,8.481,14.944,9.090,-0.087,1.005,-0.050,0.061,2.289,-0.214,80.000,7750.000,1.000
1.938,4.118,5.922,5.761,12.015,6.903,12.835,8.007,-0.086,1.004,-0.045,0.031,2.411,-0.214,80.000,7751.000,1.000
1.638,2.237,4.844,4.186,10.614,4.887,9.961,5.947,-0.085,1.002,-0.048,-0.092,2.533,-0.122,80.000,7752.000,1.000
0.501,0.704,3.151,2.323,8.705,3.496,7.654,4.397,-0.086,1.002,-0.048,-0.092,2.441,-0.061,80.000,7753.000,1.000
-1.094,0.607,1.182,1.068,6.458,3.175,6.518,4.093,-0.087,0.999,-0.048,-0.031,2.380,-0.031,80.000,7754.000,1.000
-2.570,1.209,-0.455,0.437,4.550,3.668,6.238,4.446,-0.088,0.998,-0.051,-0.092,2.289,-0.031,80.000,7755.000,1.000
-3.260,1.281,-1.118,0.061,3.709,4.575,6.269,4.623,-0.090,0.995,-0.049,0.000,2.350,0.122,80.000,7756.000,1.000
-2.782,0.910,-0.657,0.019,3.968,5.774,6.486,4.748,-0.087,0.994,-0.047,0.061,2.441,0.153,80.000,7757.000,1.000
-1.336,1.273,0.436,0.819,4.676,7.266,7.049,5.591,-0.088,0.993,-0.044,0.122,2.533,0.153,80.000,7758.000,1.000
0.353,2.659,1.436,2.488,5.164,8.692,7.725,7.118,-0.089,0.992,-0.047,0.305,2.441,0.061,80.000,7759.000,1.000
1.543,3.736,2.029,4.195,5.307,9.417,7.791,8.039,-0.087,0.992,-0.049,0.458,2.411,0.031,80.000,7760.000,1.000
2.076,3.356,2.600,5.162,5.509,9.335,6.940,7.292,-0.086,0.993,-0.049,0.580,2.441,-0.061,80.000,7761.000,1.000
2.368,2.339,3.756,5.603,6.101,9.202,5.863,5.507,-0.084,0.994,-0.047,0.610,2.441,-0.153,80.000,7762.000,1.000
2.868,2.648,5.662,6.410,6.982,9.881,5.599,4.419,-0.085,0.995,-0.048,0.641,2.350,-0.214,80.000,7763.000,1.000
3.787,5.050,8.129,8.154,8.080,11.550,6.630,5.118,-0.084,0.997,-0.046,0.763,2.411,-0.275,80.000,7764.000,1.000
5.171,8.191,11.000,10.539,9.741,13.682,8.694,7.216,-0.082,0.997,-0.045,0.763,2.563,-0.397,80.000,7765.000,1.000
6.835,10.029,13.907,12.670,12.028,15.399,11.007,9.480,-0.083,0.999,-0.046,0.854,2.777,-0.397,80.000,7766.000,1.000
8.249,9.775,15.855,13.773,13.896,15.802,12.556,10.958,-0.083,1.001,-0.044,0.946,2.869,-0.427,80.000,7767.000,1.000
8.797,8.136,15.670,13.625,13.713,14.231,12.433,11.376,-0.083,1.003,-0.045,1.007,2.899,-0.397,80.000,7768.000,1.000
8.292,5.964,13.125,12.433,10.883,10.576,10.268,10.713,-0.083,1.000,-0.045,1.007,3.021,-0.366,80.000,7769.000,1.000
7.245,3.444,9.501,10.625,6.732,5.640,6.674,9.020,-0.082,1.001,-0.047,1.007,3.052,-0.336,80.000,7770.000,1.000
6.469,0.766,6.703,8.824,3.451,1.046,3.163,6.807,-0.082,1.000,-0.044,0.946,3.204,-0.305,80.000,7771.000,1.000
6.292,-1.180,5.632,7.674,2.123,-1.682,1.236,5.121,-0.082,1.002,-0.046,0.977,3.204,-0.275,80.000,7772.000,1.000
6.223,-1.466,5.588,7.385,2.073,-2.147,1.334,4.755,-0.082,1.001,-0.045,1.099,3.387,-0.275,80.000,7773.000,1.000
5.453,-0.476,5.256,7.428,2.062,-1.248,2.596,5.332,-0.083,1.001,-0.043,1.190,3.479,-0.275,80.000,7774.000,1.000
3.628,0.032,4.021,6.876,1.627,-0.357,3.619,5.488,-0.084,1.001,-0.044,1.312,3.540,-0.305,80.000,7775.000,1.000
1.156,-1.307,2.300,5.324,1.096,-0.260,3.567,4.276,-0.085,1.000,-0.047,1.221,3.601,-0.336,80.000,7776.000,1.000
-1.146,-3.918,0.840,3.438,0.658,-0.870,2.599,2.201,-0.086,1.000,-0.049,1.312,3.632,-0.305,80.000,7777.000,1.000
-2.679,-6.043,-0.071,2.326,-0.121,-1.939,1.226,0.487,-0.087,1.000,-0.048,1.282,3.571,-0.336,80.000,7778.000,1.000
-3.324,-6.814,-0.567,2.414,-1.605,-3.608,-0.404,-0.432,-0.087,1.001,-0.048,1.282,3.632,-0.397,80.000,7779.000,1.000
-3.176,-6.935,-0.598,3.154,-3.266,-5.974,-2.290,-1.184,-0.088,0.999,-0.048,1.282,3.510,-0.366,80.000,7780.000,1.000
-2.292,-7.342,0.126,3.730,-4.102,-8.556,-4.053,-2.348,-0.089,1.001,-0.047,1.312,3.571,-0.275,80.000,7781.000,1.000
-0.848,-7.846,1.498,3.829,-3.893,-10.595,-5.083,-3.577,-0.089,1.004,-0.052,1.251,3.510,-0.305,80.000,7782.000,1.000
0.621,-7.581,2.677,3.629,-3.509,-11.749,-5.127,-4.075,-0.088,1.002,-0.051,1.282,3.601,-0.275,80.000,7783.000,1.000
1.439,-6.545,2.714,3.209,-3.824,-12.290,-4.577,-3.773,-0.088,1.003,-0.051,1.434,3.540,-0.305,80.000,7784.000,1.000
1.399,-5.960,1.526,2.343,-4.630,-12.649,-4.060,-3.551,-0.084,1.002,-0.048,1.373,3.448,-0.305,80.000,7785.000,1.000
0.963,-6.828,-0.005,1.010,-5.014,-12.928,-3.843,-4.137,-0.087,1.002,-0.047,1.312,3.448,-0.275,80.000,7786.000,1.000
0.592,-8.675,-1.103,-0.350,-4.738,-13.136,-3.861,-5.247,-0.087,1.002,-0.046,1.312,3.357,-0.305,80.000,7787.000,1.000
0.081,-10.241,-2.003,-1.375,-4.770,-13.739,-4.295,-6.161,-0.089,1.002,-0.050,1.282,3.296,-0.305,80.000,7788.000,1.000
-1.096,-11.121,-3.411,-2.319,-6.113,-15.442,-5.670,-6.820,-0.087,1.001,-0.051,1.312,3.235,-0.275,80.000,7789.000,1.000
-2.905,-12.076,-5.315,-3.743,-8.491,-18.280,-8.201,-7.844,-0.089,1.002,-0.049,1.373,3.265,-0.214,80.000,7790.000,1.000
-4.518,-13.613,-6.797,-5.663,-10.594,-21.205,-11.224,-9.452,-0.089,1.004,-0.049,1.312,3.235,-0.122,80.000,7791.000,1.000
-5.013,-14.829,-6.998,-7.252,-11.483,-22.759,-13.518,-10.771,-0.089,1.002,-0.050,1.312,3.143,-0.122,80.000,7792.000,1.000
-4.137,-14.267,-5.927,-7.501,-11.333,-22.206,-14.286,-10.652,-0.090,1.004,-0.048,1.343,3.052,-0.122,80.000,7793.000,1.000
-2.264,-11.700,-4.159,-6.109,-10.720,-20.000,-13.697,-8.999,-0.089,1.004,-0.052,1.282,3.052,-0.244,80.000,7794.000,1.000
0.220,-8.470,-2.008,-3.680,-9.627,-17.188,-12.424,-6.908,-0.088,1.004,-0.052,1.190,2.960,-0.092,80.000,7795.000,1.000
3.108,-5.983,0.548,-1.149,-7.666,-14.543,-10.888,-5.448,-0.090,1.004,-0.052,1.312,2.930,-0.092,80.000,7796.000,1.000
5.942,-4.359,3.190,0.874,-5.154,-12.335,-9.163,-4.690,-0.089,1.001,-0.051,1.221,2.838,-0.092,80.000,7797.000,1.000
7.811,-2.942,4.944,2.189,-3.355,-10.765,-7.478,-4.092,-0.087,1.000,-0.049,1.190,2.716,-0.061,80.000,7798.000,1.000
7.925,-1.828,4.895,2.676,-3.324,-10.211,-6.414,-3.577,-0.087,0.997,-0.050,1.221,2.838,0.092,80.000,7799.000,1.000
6.442,-2.045,3.197,2.231,-4.705,-10.794,-6.344,-3.671,-0.086,0.996,-0.050,1.373,2.808,0.092,80.000,7800.000,1.000
4.531,-3.952,1.106,1.127,-6.079,-11.913,-6.883,-4.549,-0.085,0.998,-0.051,1.343,2.716,0.122,80.000,7801.000,1.000
3.502,-6.110,-0.094,0.173,-6.466,-12.557,-7.187,-5.408,-0.084,0.997,-0.053,1.404,2.777,0.183,80.000,7802.000,1.000
3.921,-6.391,-0.028,0.204,-6.109,-12.141,-6.778,-5.205,-0.084,0.999,-0.052,1.434,2.869,0.244,80.000,7803.000,1.000
5.548,-4.152,0.936,1.354,-5.642,-10.878,-5.926,-3.866,-0.082,0.999,-0.051,1.373,2.899,0.275,80.000,7804.000,1.000
7.918,-0.781,2.466,3.004,-4.974,-9.262,-5.127,-2.331,-0.083,1.000,-0.051,1.434,2.960,0.366,80.000,7805.000,1.000
10.658,1.926,4.433,4.424,-3.533,-7.446,-4.440,-1.409,-0.085,0.997,-0.052,1.404,3.052,0.366,80.000,7806.000,1.000
13.220,3.414,6.382,5.322,-1.501,-5.426,-3.606,-1.003,-0.084,0.997,-0.053,1.526,2.991,0.366,80.000,7807.000,1.000
14.710,4.136,7.332,5.711,-0.150,-3.664,-2.739,-0.664,-0.086,0.996,-0.056,1.648,3.021,0.366,80.000,7808.000,1.000
14.419,4.168,6.550,5.507,-0.553,-2.987,-2.453,-0.532,-0.085,0.994,-0.051,1.587,2.991,0.244,80.000,7809.000,1.000
12.561,2.931,4.435,4.562,-2.259,-3.685,-3.089,-1.197,-0.085,0.996,-0.053,1.709,2.930,0.183,80.000,7810.000,1.000
10.206,0.373,2.285,3.097,-3.716,-5.068,-4.152,-2.702,-0.085,0.997,-0.053,1.709,2.899,0.122,80.000,7811.000,1.000
8.448,-2.110,1.161,1.877,-3.886,-5.979,-4.657,-4.037,-0.085,1.000,-0.053,1.770,2.747,-0.031,80.000,7812.000,1.000
7.702,-2.588,1.150,1.712,-3.002,-5.621,-3.983,-3.934,-0.087,1.001,-0.058,1.801,2.777,-0.183,80.000,7813.000,1.000
7.689,-0.664,1.649,2.655,-1.862,-4.113,-2.439,-2.225,-0.085,1.002,-0.061,1.648,2.686,-0.214,80.000,7814.000,1.000
7.830,1.816,2.036,3.789,-0.927,-2.440,-1.073,-0.182,-0.084,1.001,-0.058,1.617,2.625,-0.122,80.000,7815.000,1.000
7.613,2.539,1.903,3.987,-0.338,-1.721,-0.868,0.698,-0.086,1.004,-0.057,1.343,2.625,-0.244,80.000,7816.000,1.000
6.767,1.059,0.929,2.946,-0.416,-2.363,-2.012,0.135,-0.085,1.005,-0.055,1.373,2.594,-0.275,80.000,7817.000,1.000
5.292,-1.068,-1.106,1.333,-1.627,-3.877,-3.915,-0.949,-0.083,1.006,-0.054,1.282,2.563,-0.244,80.000,7818.000,1.000
3.418,-2.338,-3.999,-0.094,-3.899,-5.414,-5.852,-1.785,-0.083,1.007,-0.056,1.190,2.533,-0.061,80.000,7819.000,1.000
1.631,-2.721,-6.868,-1.147,-6.237,-6.266,-7.363,-2.536,-0.081,1.007,-0.055,1.068,2.533,-0.122,80.000,7820.000,1.000
0.587,-2.862,-8.483,-1.903,-7.367,-5.999,-8.142,-3.538,-0.080,1.006,-0.055,0.946,2.625,-0.183,80.000,7821.000,1.000
0.600,-2.754,-8.292,-2.251,-7.017,-4.672,-8.069,-4.428,-0.080,1.006,-0.056,0.885,2.838,-0.244,80.000,7822.000,1.000
1.107,-2.066,-7.167,-2.173,-6.392,-3.162,-7.598,-4.648,-0.080,1.006,-0.055,0.702,2.777,-0.183,80.000,7823.000,1.000
0.984,-1.370,-6.680,-2.181,-6.946,-2.738,-7.668,-4.455,-0.080,1.006,-0.056,0.641,2.899,-0.153,80.000,7824.000,1.000
-0.416,-2.035,-7.587,-3.029,-8.795,-3.939,-8.825,-4.806,-0.080,1.005,-0.055,0.549,3.021,-0.183,80.000,7825.000,1.000
-2.716,-4.638,-9.382,-4.971,-10.813,-6.057,-10.649,-6.236,-0.084,1.002,-0.055,0.458,2.991,-0.183,80.000,7826.000,1.000
-5.008,-7.918,-11.200,-7.422,-12.128,-7.847,-12.173,-8.155,-0.084,1.002,-0.053,0.397,3.052,-0.061,80.000,7827.000,1.000
-6.656,-9.788,-12.678,-9.399,-12.937,-8.635,-12.748,-9.463,-0.084,1.000,-0.053,0.397,3.082,-0.092,80.000,7828.000,1.000
-7.578,-9.480,-13.847,-10.422,-13.806,-8.724,-12.551,-9.837,-0.083,1.001,-0.055,0.366,3.143,-0.183,80.000,7829.000,1.000
-7.952,-8.288,-14.598,-10.899,-14.700,-8.861,-12.284,-10.068,-0.083,1.001,-0.052,0.336,3.113,-0.305,80.000,7830.000,1.000
-7.864,-7.920,-14.607,-11.483,-15.033,-9.397,-12.374,-10.916,-0.084,1.001,-0.051,0.366,3.174,-0.366,80.000,7831.000,1.000
-7.361,-8.535,-13.842,-12.227,-14.545,-10.040,-12.567,-11.998,-0.086,1.003,-0.052,0.336,3.113,-0.336,80.000,7832.000,1.000
-6.660,-8.892,-12.820,-12.603,-13.684,-10.312,-12.344,-12.239,-0.086,1.003,-0.050,0.275,3.052,-0.336,80.000,7833.000,1.000
-6.037,-8.147,-12.043,-12.204,-12.876,-9.987,-11.497,-11.189,-0.084,1.003,-0.050,0.336,3.021,-0.458,80.000,7834.000,1.000
-5.445,-6.789,-11.280,-11.112,-11.747,-9.017,-10.114,-9.427,-0.085,1.003,-0.049,0.336,3.174,-0.519,80.000,7835.000,1.000
-4.446,-5.641,-9.741,-9.567,-9.536,-7.333,-8.252,-7.648,-0.084,1.001,-0.047,0.366,3.143,-0.610,80.000,7836.000,1.000
-2.654,-4.506,-7.012,-7.546,-6.254,-4.942,-5.891,-5.776,-0.084,1.002,-0.052,0.366,3.204,-0.671,80.000,7837.000,1.000
-0.325,-2.553,-3.706,-5.000,-3.054,-2.269,-3.314,-3.394,-0.083,1.001,-0.048,0.244,3.143,-0.702,80.000,7838.000,1.000
1.657,0.013,-1.028,-2.439,-1.248,-0.256,-1.325,-0.893,-0.084,1.000,-0.050,0.305,3.113,-0.824,80.000,7839.000,1.000
2.596,1.685,0.380,-0.750,-0.985,0.278,-0.662,0.572,-0.084,1.000,-0.052,0.275,3.113,-0.702,80.000,7840.000,1.000
2.606,1.415,0.921,-0.329,-1.210,-0.544,-1.146,0.445,-0.084,0.999,-0.050,0.336,3.113,-0.671,80.000,7841.000,1.000
2.128,-0.068,1.200,-0.761,-1.065,-1.797,-1.804,-0.493,-0.084,0.998,-0.048,0.458,3.174,-0.610,80.000,7842.000,1.000
1.207,-1.147,1.173,-1.379,-0.797,-2.671,-1.871,-1.011,-0.086,0.998,-0.049,0.427,2.991,-0.641,80.000,7843.000,1.000
-0.296,-1.192,0.541,-1.857,-0.963,-2.986,-1.353,-0.710,-0.087,0.998,-0.048,0.641,3.052,-0.671,80.000,7844.000,1.000
-1.980,-1.044,-0.373,-2.213,-1.288,-2.949,-0.676,-0.205,-0.085,0.999,-0.045,0.702,3.052,-0.580,80.000,7845.000,1.000
-2.879,-1.596,-0.690,-2.366,-0.872,-2.655,-0.037,-0.074,-0.087,1.000,-0.046,0.702,3.082,-0.580,80.000,7846.000,1.000
-2.262,-2.348,0.135,-1.813,0.691,-1.897,0.867,0.094,-0.087,0.998,-0.045,0.763,3.082,-0.671,80.000,7847.000,1.000
-0.308,-1.908,1.783,-0.011,2.829,-0.446,2.442,1.238,-0.089,0.998,-0.048,0.854,3.021,-0.610,80.000,7848.000,1.000
2.034,0.117,3.486,2.831,4.686,1.515,4.545,3.425,-0.088,0.998,-0.048,0.885,2.960,-0.580,80.000,7849.000,1.000
3.789,2.412,4.819,5.623,6.030,3.425,6.436,5.458,-0.087,0.999,-0.046,1.007,2.838,-0.519,80.000,7850.000,1.000
4.537,3.493,5.928,7.262,7.217,4.843,7.486,6.144,-0.088,1.000,-0.045,1.007,2.777,-0.488,80.000,7851.000,1.000
4.361,3.449,6.937,7.504,8.330,5.730,7.719,5.543,-0.090,0.999,-0.043,1.099,2.625,-0.580,80.000,7852.000,1.000
3.478,3.604,7.457,6.855,8.792,6.179,7.545,4.628,-0.092,0.998,-0.045,1.221,2.441,-0.519,80.000,7853.000,1.000
2.181,4.653,7.039,5.889,8.166,6.175,7.228,4.035,-0.093,0.997,-0.045,1.373,2.380,-0.580,80.000,7854.000,1.000
1.060,5.827,5.960,4.901,7.015,5.815,6.844,3.620,-0.092,0.999,-0.044,1.404,2.289,-0.519,80.000,7855.000,1.000
0.825,6.036,5.085,4.106,6.461,5.509,6.613,3.186,-0.090,0.999,-0.046,1.373,2.258,-0.458,80.000,7856.000,1.000
1.676,5.362,4.881,3.825,6.899,5.680,6.914,3.164,-0.087,0.996,-0.051,1.495,2.228,-0.397,80.000,7857.000,1.000
2.982,4.836,4.866,4.216,7.521,6.218,7.788,4.091,-0.088,0.995,-0.048,1.617,2.106,-0.397,80.000,7858.000,1.000
3.781,4.824,4.212,4.856,7.273,6.403,8.583,5.563,-0.089,0.998,-0.047,1.801,2.106,-0.336,80.000,7859.000,1.000
3.706,4.467,2.821,4.972,6.092,5.659,8.494,6.329,-0.087,0.997,-0.049,1.801,2.106,-0.275,80.000,7860.000,1.000
3.259,3.058,1.498,4.228,4.888,4.339,7.456,5.666,-0.088,0.996,-0.048,1.923,1.984,-0.397,80.000,7861.000,1.000
3.058,1.292,0.908,3.062,4.268,3.443,6.198,4.216,-0.087,0.996,-0.049,2.106,1.862,-0.305,80.000,7862.000,1.000
3.081,0.606,0.764,2.148,3.819,3.604,5.457,3.230,-0.087,0.998,-0.048,2.167,1.831,-0.366,80.000,7863.000,1.000
2.919,1.486,0.403,1.730,2.997,4.652,5.444,3.217,-0.087,1.000,-0.051,2.106,1.770,-0.122,80.000,7864.000,1.000
2.488,2.896,-0.223,1.551,2.184,6.014,5.977,3.588,-0.086,1.000,-0.051,2.045,1.831,-0.153,80.000,7865.000,1.000
2.158,3.529,-0.539,1.327,2.265,7.287,6.857,3.584,-0.085,1.002,-0.049,2.106,1.862,-0.122,80.000,7866.000,1.000
2.215,3.327,-0.210,1.115,3.324,8.381,7.956,3.243,-0.085,1.004,-0.047,1.984,2.014,-0.061,80.000,7867.000,1.000
2.441,3.256,0.322,1.092,4.284,9.201,8.954,3.140,-0.084,1.003,-0.048,2.014,1.923,-0.031,80.000,7868.000,1.000
2.433,3.736,0.370,1.135,4.102,9.419,9.272,3.374,-0.085,1.004,-0.051,1.892,1.984,0.000,80.000,7869.000,1.000
2.358,4.114,-0.003,0.992,3.088,8.824,8.604,3.382,-0.083,1.002,-0.052,1.862,1.953,0.000,80.000,7870.000,1.000
3.101,3.986,0.182,0.876,2.683,7.898,7.493,2.899,-0.082,1.003,-0.056,1.831,2.075,-0.031,80.000,7871.000,1.000
5.343,4.287,1.790,1.539,3.925,7.673,7.101,2.659,-0.083,1.003,-0.054,1.801,2.106,-0.031,80.000,7872.000,1.000
8.586,6.220,4.431,3.454,6.336,8.640,8.058,3.599,-0.083,1.003,-0.056,1.678,2.136,-0.092,80.000,7873.000,1.000
11.424,9.225,6.583,5.961,8.370,9.933,9.553,5.368,-0.082,1.004,-0.054,1.587,2.258,-0.092,80.000,7874.000,1.000
12.948,10.992,6.990,7.590,8.844,10.037,9.949,6.286,-0.082,1.005,-0.053,1.465,2.411,-0.031,80.000,7875.000,1.000
13.686,10.001,5.881,7.524,7.863,8.430,8.534,5.219,-0.081,1.004,-0.054,1.373,2.563,-0.122,80.000,7876.000,1.000
15.036,7.494,4.668,6.564,6.443,6.266,6.409,3.114,-0.081,1.003,-0.052,1.282,2.625,-0.092,80.000,7877.000,1.000
17.908,6.325,4.621,6.382,5.547,5.330,5.424,2.146,-0.081,1.000,-0.052,1.282,2.747,-0.153,80.000,7878.000,1.000
22.123,7.944,6.056,7.893,5.648,6.436,6.410,3.458,-0.081,0.999,-0.055,1.312,2.869,-0.244,80.000,7879.000,1.000
26.868,11.017,8.514,10.531,6.841,8.809,8.588,6.143,-0.081,0.998,-0.055,1.251,2.838,-0.275,80.000,7880.000,1.000
31.418,13.212,11.331,13.138,8.917,11.006,10.609,8.554,-0.081,0.999,-0.053,1.282,2.930,-0.366,80.000,7881.000,1.000
35.599,13.961,14.041,15.344,11.351,12.311,11.926,10.219,-0.083,0.999,-0.056,1.282,3.052,-0.244,80.000,7882.000,1.000
39.693,14.740,16.461,17.740,13.464,13.016,12.901,11.928,-0.082,1.000,-0.056,1.343,3.143,-0.397,80.000,7883.000,1.000
43.946,16.773,18.638,20.796,14.909,13.623,13.877,14.142,-0.081,0.999,-0.055,1.190,3.174,-0.336,80.000,7884.000,1.000
48.275,19.473,20.841,24.108,16.059,14.324,14.730,16.147,-0.080,0.999,-0.053,1.312,3.265,-0.427,80.000,7885.000,1.000
52.369,21.554,23.409,26.907,17.631,15.219,15.361,17.079,-0.083,0.998,-0.055,1.282,3.326,-0.488,80.000,7886.000,1.000
55.822,22.875,26.336,28.960,19.778,16.486,16.101,17.237,-0.083,0.998,-0.055,1.373,3.387,-0.397,80.000,7887.000,1.000
58.108,24.295,28.998,30.612,21.755,17.959,17.218,17.757,-0.083,1.000,-0.054,1.343,3.387,-0.366,80.000,7888.000,1.000
58.767,26.023,30.644,32.074,22.791,18.944,18.397,19.174,-0.084,1.000,-0.057,1.282,3.571,-0.366,80.000,7889.000,1.000
57.875,27.113,31.242,33.070,23.132,18.897,19.159,20.856,-0.084,1.000,-0.055,1.312,3.571,-0.366,80.000,7890.000,1.000
56.134,26.827,31.493,33.229,23.778,18.171,19.613,21.919,-0.088,1.002,-0.052,1.312,3.571,-0.305,80.000,7891.000,1.000
54.260,25.880,31.942,32.595,25.192,17.769,20.437,22.340,-0.087,1.002,-0.053,1.190,3.571,-0.244,80.000,7892.000,1.000
52.319,25.613,32.226,31.431,26.551,18.220,21.959,22.697,-0.086,1.002,-0.050,1.221,3.662,-0.214,80.000,7893.000,1.000
49.800,26.029,31.406,29.629,26.527,18.880,23.470,22.940,-0.087,1.001,-0.051,1.099,3.662,-0.214,80.000,7894.000,1.000
46.403,25.604,29.163,26.906,24.815,18.682,23.828,22.227,-0.086,1.000,-0.055,1.099,3.540,-0.275,80.000,7895.000,1.000
42.559,23.290,26.374,23.634,22.537,17.436,22.709,20.212,-0.087,1.000,-0.054,1.190,3.601,-0.183,80.000,7896.000,1.000
38.988,20.021,24.192,20.926,20.917,15.979,20.863,17.848,-0.089,1.001,-0.052,1.160,3.601,-0.153,80.000,7897.000,1.000
35.890,17.730,22.866,19.643,20.010,15.121,19.184,16.491,-0.091,1.002,-0.049,1.129,3.387,-0.153,80.000,7898.000,1.000
32.793,17.067,21.768,19.508,19.088,14.767,17.832,16.423,-0.091,1.003,-0.053,1.038,3.387,-0.153,80.000,7899.000,1.000
29.177,16.688,20.342,19.333,17.828,14.162,16.404,16.628,-0.089,1.003,-0.053,1.160,3.387,-0.153,80.000,7900.000,1.000
25.025,15.003,18.571,18.087,16.579,12.848,14.717,15.998,-0.088,1.002,-0.051,1.068,3.296,-0.153,80.000,7901.000,1.000
20.620,12.086,16.521,15.642,15.522,11.137,13.095,14.436,-0.087,1.002,-0.050,1.160,3.204,-0.122,80.000,7902.000,1.000
16.061,9.368,13.856,12.516,14.134,9.635,11.843,12.580,-0.089,1.003,-0.053,1.129,3.265,0.000,80.000,7903.000,1.000
11.321,7.706,10.231,9.154,11.844,8.529,10.725,10.746,-0.089,1.003,-0.052,1.160,3.174,0.000,80.000,7904.000,1.000
6.616,6.375,5.969,5.635,8.898,7.488,9.171,8.575,-0.088,1.002,-0.050,1.160,3.052,-0.061,80.000,7905.000,1.000
2.272,4.129,1.904,1.938,6.067,6.068,6.890,5.740,-0.087,0.999,-0.051,1.099,3.021,-0.061,80.000,7906.000,1.000
-1.792,0.835,-1.487,-1.729,3.585,4.043,4.104,2.633,-0.086,0.998,-0.050,1.007,2.991,0.092,80.000,7907.000,1.000
-6.117,-2.469,-4.494,-4.966,0.856,1.384,1.191,0.008,-0.085,0.999,-0.051,1.007,3.052,0.031,80.000,7908.000,1.000
-11.002,-4.983,-7.495,-7.451,-2.517,-1.760,-1.644,-1.863,-0.085,1.000,-0.052,1.160,2.899,0.000,80.000,7909.000,1.000
-15.869,-6.865,-10.062,-9.043,-5.682,-4.765,-4.122,-3.280,-0.088,1.000,-0.052,1.160,2.838,0.061,80.000,7910.000,1.000
-19.622,-8.434,-11.227,-9.737,-7.132,-6.528,-5.659,-4.455,-0.086,1.000,-0.052,1.129,2.808,0.061,80.000,7911.000,1.000
-21.712,-9.263,-10.698,-9.644,-6.438,-6.279,-5.852,-5.177,-0.086,1.000,-0.049,1.160,2.838,0.214,80.000,7912.000,1.000
-22.656,-8.589,-9.357,-9.087,-4.861,-4.456,-5.125,-5.281,-0.086,1.000,-0.049,1.221,2.869,0.153,80.000,7913.000,1.000
-23.490,-6.566,-8.357,-8.665,-3.991,-2.489,-4.571,-5.277,-0.086,1.000,-0.050,1.312,2.777,0.122,80.000,7914.000,1.000
-24.837,-4.621,-8.041,-9.068,-4.186,-1.594,-5.019,-6.195,-0.086,1.002,-0.049,1.251,2.716,0.122,80.000,7915.000,1.000
-26.530,-4.179,-7.976,-10.559,-4.698,-1.862,-6.361,-8.559,-0.085,1.001,-0.051,1.312,2.655,0.092,80.000,7916.000,1.000
-28.044,-5.147,-7.798,-12.584,-4.985,-2.487,-7.721,-11.562,-0.086,1.002,-0.049,1.343,2.686,0.061,80.000,7917.000,1.000
-29.179,-6.159,-7.726,-14.154,-5.351,-2.707,-8.254,-13.631,-0.085,1.003,-0.051,1.282,2.655,0.000,80.000,7918.000,1.000
-30.175,-6.392,-8.222,-14.783,-6.305,-2.512,-7.919,-13.996,-0.085,1.001,-0.052,1.129,2.655,0.092,80.000,7919.000,1.000
-31.285,-6.569,-9.360,-14.898,-7.710,-2.492,-7.470,-13.414,-0.084,1.001,-0.053,1.282,2.655,0.031,80.000,7920.000,1.000
-32.427,-7.719,-10.632,-15.133,-8.827,-3.011,-7.508,-13.011,-0.083,1.003,-0.050,1.190,2.625,0.000,80.000,7921.000,1.000
-33.291,-9.379,-11.358,-15.389,-9.111,-3.657,-7.700,-12.773,-0.084,1.002,-0.054,1.221,2.563,-0.122,80.000,7922.000,1.000
-33.824,-9.963,-11.411,-15.088,-8.822,-3.805,-7.338,-11.854,-0.085,1.002,-0.052,1.190,2.563,-0.183,80.000,7923.000,1.000
-34.470,-8.934,-11.373,-14.249,-8.658,-3.457,-6.375,-10.135,-0.085,1.001,-0.051,1.251,2.533,-0.275,80.000,7924.000,1.000
-35.738,-7.579,-11.715,-13.668,-8.684,-3.021,-5.275,-8.528,-0.083,1.002,-0.052,1.373,2.380,-0.214,80.000,7925.000,1.000
-37.635,-7.332,-12.193,-13.983,-8.189,-2.570,-4.137,-7.735,-0.083,1.001,-0.051,1.434,2.380,-0.244,80.000,7926.000,1.000
-39.755,-8.090,-12.437,-15.015,-6.891,-1.912,-2.646,-7.434,-0.084,1.000,-0.048,1.465,2.502,-0.336,80.000,7927.000,1.000
-41.747,-8.698,-12.707,-16.121,-5.706,-1.301,-0.874,-6.951,-0.085,1.000,-0.051,1.526,2.472,-0.305,80.000,7928.000,1.000
-43.432,-8.740,-13.567,-16.948,-5.822,-1.608,0.357,-6.404,-0.083,1.000,-0.052,1.526,2.502,-0.244,80.000,7929.000,1.000
-44.486,-9.053,-14.902,-17.600,-7.218,-3.416,0.195,-6.655,-0.084,1.001,-0.053,1.465,2.563,-0.244,80.000,7930.000,1.000
-44.383,-10.241,-15.641,-18.035,-8.470,-6.021,-1.160,-7.993,-0.084,1.002,-0.053,1.587,2.533,-0.244,80.000,7931.000,1.000
-42.937,-11.336,-14.730,-17.684,-8.183,-7.717,-2.440,-9.332,-0.087,1.002,-0.053,1.678,2.380,-0.366,80.000,7932.000,1.000
-40.729,-10.662,-12.319,-16.072,-6.404,-7.262,-2.630,-9.307,-0.087,1.001,-0.053,1.678,2.411,-0.366,80.000,7933.000,1.000
-38.750,-7.959,-9.711,-13.741,-4.416,-4.909,-2.116,-8.039,-0.083,1.000,-0.051,1.678,2.502,-0.336,80.000,7934.000,1.000
-37.567,-4.923,-8.053,-12.072,-3.250,-1.912,-2.162,-7.208,-0.084,1.000,-0.049,1.801,2.533,-0.275,80.000,7935.000,1.000
-36.915,-3.342,-7.348,-11.983,-2.797,0.800,-3.363,-8.172,-0.084,1.001,-0.053,1.801,2.472,-0.305,80.000,7936.000,1.000
-36.202,-3.216,-6.951,-13.091,-2.509,3.118,-5.071,-10.504,-0.083,0.998,-0.054,1.892,2.472,-0.336,80.000,7937.000,1.000
-35.369,-3.218,-6.711,-14.324,-2.484,5.010,-6.421,-12.681,-0.085,0.999,-0.053,1.862,2.441,-0.244,80.000,7938.000,1.000
-34.963,-2.672,-7.077,-15.080,-3.244,5.913,-7.359,-13.764,-0.085,1.000,-0.056,1.892,2.441,-0.275,80.000,7939.000,1.000
-35.365,-2.378,-8.182,-15.551,-4.679,5.178,-8.348,-13.952,-0.085,1.000,-0.053,1.862,2.533,-0.275,80.000,7940.000,1.000
-36.269,-3.344,-9.444,-16.093,-5.965,2.831,-9.503,-13.694,-0.084,0.998,-0.053,1.892,2.411,-0.275,80.000,7941.000,1.000
-37.064,-5.241,-10.259,-16.605,-6.602,-0.359,-10.377,-12.752,-0.085,0.998,-0.055,1.862,2.319,-0.244,80.000,7942.000,1.000
-37.576,-6.758,-10.779,-16.754,-7.054,-3.538,-10.566,-10.556,-0.083,0.997,-0.056,1.953,2.289,-0.183,80.000,7943.000,1.000
-38.176,-7.452,-11.764,-16.695,-8.154,-6.353,-10.353,-7.440,-0.085,0.999,-0.054,1.984,2.411,-0.244,80.000,7944.000,1.000
-39.142,-8.384,-13.627,-17.146,-9.989,-8.712,-10.425,-4.896,-0.083,1.001,-0.056,1.953,2.563,-0.214,80.000,7945.000,1.000
-40.223,-10.477,-15.778,-18.492,-11.644,-10.106,-10.879,-4.132,-0.082,1.001,-0.053,1.831,2.502,-0.275,80.000,7946.000,1.000
-41.001,-12.922,-17.225,-20.197,-12.249,-9.762,-11.001,-4.799,-0.084,1.002,-0.055,1.862,2.472,-0.305,80.000,7947.000,1.000
-41.534,-14.083,-17.854,-21.494,-12.180,-7.777,-10.391,-5.758,-0.084,1.000,-0.055,1.831,2.502,-0.275,80.000,7948.000,1.000
-42.425,-13.812,-18.694,-22.493,-12.775,-5.687,-9.864,-6.813,-0.084,1.000,-0.058,1.770,2.625,-0.214,80.000,7949.000,1.000
-44.196,-13.901,-20.675,-24.083,-14.760,-5.257,-10.625,-8.835,-0.082,1.001,-0.056,1.709,2.472,-0.214,80.000,7950.000,1.000
-46.735,-15.933,-23.557,-26.758,-17.493,-6.849,-12.841,-12.250,-0.082,1.000,-0.054,1.709,2.502,-0.275,80.000,7951.000,1.000
-49.511,-19.466,-26.532,-30.039,-20.150,-9.578,-15.758,-16.242,-0.082,1.002,-0.057,1.770,2.563,-0.275,80.000,7952.000,1.000
-52.086,-22.708,-29.330,-33.060,-22.946,-12.722,-18.923,-19.722,-0.083,1.000,-0.056,1.648,2.594,-0.183,80.000,7953.000,1.000
-54.103,-24.455,-31.954,-35.246,-26.336,-16.162,-22.484,-22.470,-0.082,1.002,-0.056,1.617,2.563,-0.183,80.000,7954.000,1.000
-54.931,-24.896,-33.714,-36.360,-29.560,-19.648,-26.359,-24.998,-0.082,1.003,-0.060,1.587,2.716,-0.122,80.000,7955.000,1.000
-53.780,-24.696,-33.392,-36.194,-30.991,-22.397,-29.719,-27.502,-0.081,1.003,-0.059,1.556,2.716,-0.122,80.000,7956.000,1.000
-50.385,-23.772,-30.503,-34.457,-29.877,-23.608,-31.480,-29.252,-0.081,1.003,-0.056,1.465,2.808,-0.061,80.000,7957.000,1.000
-45.565,-21.453,-25.952,-31.115,-27.069,-23.160,-31.174,-29.187,-0.083,1.004,-0.056,1.465,2.838,0.000,80.000,7958.000,1.000
-40.859,-17.821,-21.285,-26.981,-23.921,-21.611,-29.285,-27.131,-0.083,1.005,-0.057,1.404,2.777,-0.122,80.000,7959.000,1.000
-37.501,-14.279,-17.524,-23.799,-20.952,-19.581,-26.731,-24.138,-0.082,1.004,-0.060,1.312,2.838,-0.061,80.000,7960.000,1.000
-35.806,-12.372,-14.883,-23.082,-17.929,-17.271,-24.050,-21.444,-0.084,1.002,-0.059,1.251,2.899,-0.092,80.000,7961.000,1.000
-35.483,-12.260,-13.373,-24.605,-14.960,-14.666,-21.194,-19.285,-0.081,1.002,-0.058,1.160,2.899,-0.061,80.000,7962.000,1.000
-36.261,-12.901,-13.303,-26.597,-13.004,-12.175,-18.206,-17.144,-0.080,1.001,-0.057,1.160,2.899,-0.031,80.000,7963.000,1.000
-38.026,-13.732,-15.022,-27.569,-13.076,-10.803,-15.782,-15.013,-0.082,1.000,-0.056,1.099,2.838,-0.122,80.000,7964.000,1.000
-40.433,-15.473,-18.233,-27.448,-15.044,-11.315,-14.684,-13.680,-0.081,1.000,-0.055,1.068,2.899,-0.092,80.000,7965.000,1.000
-42.707,-18.842,-21.781,-26.894,-17.552,-13.322,-14.700,-13.533,-0.083,0.999,-0.060,1.160,2.930,-0.061,80.000,7966.000,1.000
-44.060,-23.003,-24.416,-26.216,-19.333,-15.557,-14.698,-13.721,-0.083,1.000,-0.059,1.129,3.021,0.031,80.000,7967.000,1.000
-44.259,-25.996,-25.688,-25.365,-20.258,-17.045,-13.786,-13.006,-0.081,1.000,-0.054,1.099,2.991,0.031,80.000,7968.000,1.000
-43.677,-26.723,-25.951,-24.571,-20.867,-17.730,-12.171,-11.300,-0.080,1.002,-0.054,1.068,2.930,0.092,80.000,7969.000,1.000
-42.731,-25.987,-25.655,-24.360,-21.303,-18.090,-10.883,-9.981,-0.079,1.000,-0.056,1.190,3.113,0.031,80.000,7970.000,1.000
-41.301,-25.129,-24.799,-24.750,-21.126,-18.310,-10.727,-10.393,-0.080,1.002,-0.057,1.099,3.052,-0.061,80.000,7971.000,1.000
-38.806,-24.036,-23.064,-24.747,-19.998,-17.993,-11.580,-12.259,-0.082,1.001,-0.059,1.038,3.113,-0.092,80.000,7972.000,1.000
-34.912,-21.380,-20.432,-23.112,-18.324,-16.778,-12.852,-14.070,-0.083,1.000,-0.059,1.068,3.204,-0.122,80.000,7973.000,1.000
-29.973,-16.802,-17.389,-19.636,-16.868,-14.971,-14.254,-14.855,-0.082,0.999,-0.059,1.160,3.174,-0.061,80.000,7974.000,1.000
-24.687,-11.862,-14.342,-15.313,-15.749,-13.220,-15.769,-14.894,-0.083,1.000,-0.057,1.221,3.174,-0.122,80.000,7975.000,1.000
-19.625,-8.506,-11.301,-11.355,-14.409,-11.815,-17.158,-14.817,-0.083,1.000,-0.057,1.160,3.235,-0.092,80.000,7976.000,1.000
-15.250,-7.119,-8.348,-8.319,-12.639,-10.568,-17.843,-14.555,-0.081,1.000,-0.056,1.068,3.143,0.031,80.000,7977.000,1.000
-12.069,-6.479,-5.991,-6.074,-11.024,-9.190,-17.282,-13.422,-0.082,0.999,-0.056,1.038,3.174,-0.031,80.000,7978.000,1.000
-10.380,-5.492,-4.705,-4.378,-10.097,-7.586,-15.415,-11.116,-0.083,1.001,-0.056,1.038,3.204,-0.061,80.000,7979.000,1.000
-9.793,-4.316,-4.219,-3.205,-9.424,-5.718,-12.570,-8.240,-0.085,1.001,-0.056,1.038,3.326,-0.153,80.000,7980.000,1.000
-9.182,-3.468,-3.524,-2.378,-7.858,-3.341,-8.868,-5.462,-0.086,1.002,-0.055,0.916,3.235,-0.153,80.000,7981.000,1.000
-7.421,-2.419,-1.757,-1.244,-4.753,-0.207,-4.053,-2.527,-0.085,1.003,-0.053,0.977,3.174,-0.061,80.000,7982.000,1.000
-4.267,0.085,0.975,0.912,-0.663,3.382,1.875,1.333,-0.085,1.003,-0.053,1.068,3.143,-0.122,80.000,7983.000,1.000
-0.445,4.230,3.805,4.033,3.280,6.484,8.073,6.042,-0.084,0.999,-0.055,1.068,3.052,-0.183,80.000,7984.000,1.000
2.949,8.234,5.921,7.007,6.328,8.100,13.102,10.200,-0.085,1.002,-0.054,1.129,3.021,-0.244,80.000,7985.000,1.000
4.958,9.623,6.814,8.363,8.091,7.736,15.706,12.161,-0.085,1.000,-0.054,1.099,2.991,-0.244,80.000,7986.000,1.000
4.810,7.292,5.839,7.265,7.865,5.464,15.379,11.381,-0.083,1.000,-0.052,1.160,3.021,-0.153,80.000,7987.000,1.000
1.973,2.098,2.155,3.849,4.726,1.686,12.374,8.513,-0.083,0.999,-0.054,1.221,3.021,-0.244,80.000,7988.000,1.000
-3.398,-4.338,-4.397,-1.148,-1.278,-3.015,7.414,4.430,-0.083,0.999,-0.054,1.190,2.808,-0.214,80.000,7989.000,1.000
-10.028,-10.851,-12.433,-6.800,-8.364,-7.797,1.584,-0.360,-0.084,1.000,-0.055,1.221,2.808,-0.092,80.000,7990.000,1.000
-15.886,-16.588,-19.444,-12.018,-13.943,-11.521,-3.711,-5.271,-0.083,1.000,-0.057,1.282,2.808,-0.214,80.000,7991.000,1.000
-19.378,-20.303,-23.381,-15.583,-16.470,-13.121,-7.156,-9.099,-0.084,1.000,-0.056,1.251,2.747,-0.153,80.000,7992.000,1.000
-20.143,-20.674,-23.852,-16.555,-16.213,-12.167,-8.147,-10.498,-0.083,0.999,-0.053,1.312,2.625,-0.092,80.000,7993.000,1.000
-18.563,-17.540,-21.719,-14.759,-14.222,-9.032,-7.011,-9.080,-0.085,1.000,-0.054,1.373,2.594,0.000,80.000,7994.000,1.000
-14.909,-12.365,-17.851,-10.849,-10.974,-4.497,-4.548,-5.791,-0.083,1.001,-0.055,1.312,2.686,-0.031,80.000,7995.000,1.000
-9.410,-7.103,-12.723,-5.927,-6.482,0.611,-1.513,-2.082,-0.082,1.000,-0.054,1.373,2.625,-0.061,80.000,7996.000,1.000
-2.979,-2.793,-7.143,-1.140,-1.506,5.354,1.383,1.090,-0.081,0.995,-0.053,1.434,2.686,0.000,80.000,7997.000,1.000
2.672,0.538,-2.628,2.560,2.167,8.662,3.298,3.399,-0.085,0.993,-0.054,1.526,2.655,-0.061,80.000,7998.000,1.000
6.040,2.862,-0.444,4.593,3.203,9.844,3.587,4.629,-0.084,0.991,-0.054,1.648,2.441,-0.122,80.000,7999.000,1.000
6.991,3.684,-0.418,4.911,2.140,9.215,2.406,4.507,-0.083,0.993,-0.056,1.709,2.502,-0.092,80.000,8000.000,1.000
6.808,2.849,-1.054,4.158,0.902,8.036,0.850,3.249,-0.083,0.995,-0.055,1.740,2.594,0.000,80.000,8001.000,1.000
7.090,1.415,-0.887,3.553,0.950,7.632,0.282,1.986,-0.083,0.998,-0.056,1.831,2.625,-0.061,80.000,8002.000,1.000
8.598,1.048,0.408,4.197,2.156,8.398,1.275,2.034,-0.081,1.003,-0.057,1.892,2.502,-0.183,80.000,8003.000,1.000
10.981,2.373,2.241,6.212,3.552,9.661,3.209,3.625,-0.080,1.006,-0.057,1.831,2.380,-0.183,80.000,8004.000,1.000
13.412,4.334,4.052,8.632,4.679,10.458,4.921,5.629,-0.079,1.006,-0.057,1.740,2.441,-0.061,80.000,8005.000,1.000
15.389,5.509,5.769,10.331,5.822,10.350,5.744,6.815,-0.078,1.007,-0.058,1.617,2.533,0.000,80.000,8006.000,1.000
16.915,5.834,7.489,11.089,7.170,9.564,5.917,7.254,-0.078,1.007,-0.057,1.526,2.533,0.031,80.000,8007.000,1.000
18.008,6.397,8.908,11.506,8.186,8.454,5.940,7.977,-0.079,1.005,-0.059,1.495,2.563,0.122,80.000,8008.000,1.000
18.450,7.591,9.322,11.913,8.014,7.013,5.715,9.296,-0.076,1.003,-0.059,1.526,2.655,0.092,80.000,8009.000,1.000
18.165,8.307,8.420,11.856,6.538,5.138,4.687,10.196,-0.075,1.002,-0.060,1.434,2.686,0.061,80.000,8010.000,1.000
17.473,7.282,6.760,10.796,4.604,3.179,2.745,9.643,-0.076,0.998,-0.059,1.495,2.747,0.061,80.000,8011.000,1.000
16.780,4.760,5.176,8.957,3.004,1.833,0.578,7.939,-0.075,0.998,-0.060,1.495,2.777,0.092,80.000,8012.000,1.000
16.256,2.301,3.908,7.129,1.592,1.422,-1.031,6.310,-0.075,1.001,-0.061,1.556,2.808,0.061,80.000,8013.000,1.000
16.001,1.006,2.720,5.807,-0.190,1.452,-2.022,5.361,-0.075,1.000,-0.058,1.617,2.991,0.092,80.000,8014.000,1.000
16.340,0.519,1.760,4.932,-2.117,1.138,-2.826,4.588,-0.077,1.000,-0.059,1.556,3.021,0.092,80.000,8015.000,1.000
17.710,-0.006,1.806,4.458,-3.071,0.275,-3.487,3.479,-0.079,0.998,-0.061,1.556,3.021,0.000,80.000,8016.000,1.000
20.169,-0.400,3.423,4.786,-2.314,-0.594,-3.477,2.509,-0.080,0.997,-0.061,1.587,3.052,-0.183,80.000,8017.000,1.000
23.169,0.424,6.182,6.413,-0.395,-0.876,-2.459,2.644,-0.082,1.000,-0.061,1.556,2.991,-0.275,80.000,8018.000,1.000
25.994,2.934,9.089,9.298,1.609,-0.517,-0.858,4.153,-0.080,1.000,-0.061,1.587,2.899,-0.488,80.000,8019.000,1.000
28.345,6.169,11.684,12.798,3.506,0.212,0.641,6.375,-0.082,1.001,-0.057,1.526,3.052,-0.763,80.000,8020.000,1.000
30.374,8.791,14.292,16.226,6.048,1.283,1.936,8.631,-0.081,1.001,-0.059,1.495,2.899,-1.007,80.000,8021.000,1.000
32.297,10.612,17.224,19.393,9.627,3.004,3.560,11.076,-0.079,1.003,-0.058,1.465,2.808,-1.099,80.000,8022.000,1.000
34.062,12.547,20.098,22.460,13.491,5.535,5.952,14.362,-0.080,1.004,-0.059,1.373,2.808,-1.160,80.000,8023.000,1.000
35.300,14.986,22.097,25.209,16.458,8.463,8.830,18.413,-0.078,1.004,-0.059,1.312,2.808,-1.160,80.000,8024.000,1.000
35.587,16.791,22.743,26.739,18.014,10.938,11.365,21.907,-0.078,1.007,-0.059,1.221,2.716,-1.129,80.000,8025.000,1.000
34.785,16.403,22.172,26.184,18.400,12.191,12.838,23.315,-0.077,1.007,-0.058,1.129,2.747,-1.099,80.000,8026.000,1.000
33.068,13.710,20.660,23.655,17.786,11.873,13.052,22.313,-0.077,1.010,-0.057,0.946,2.777,-1.190,80.000,8027.000,1.000
30.744,10.216,18.146,20.165,15.794,10.004,12.110,19.737,-0.076,1.011,-0.057,0.763,2.808,-1.251,80.000,8028.000,1.000
28.147,7.289,14.533,16.677,12.164,6.817,10.017,16.297,-0.077,1.011,-0.060,0.610,2.747,-1.251,80.000,8029.000,1.000
25.753,5.027,10.472,13.550,7.788,2.930,6.878,12.006,-0.077,1.010,-0.058,0.488,2.686,-1.221,80.000,8030.000,1.000
24.286,3.156,7.452,10.958,4.525,-0.486,3.412,7.066,-0.079,1.009,-0.059,0.366,2.899,-1.190,80.000,8031.000,1.000
24.375,2.284,6.666,9.405,3.657,-2.194,0.802,2.734,-0.081,1.007,-0.058,0.153,2.960,-1.221,80.000,8032.000,1.000
25.893,3.489,7.942,9.472,4.874,-1.789,-0.141,0.726,-0.079,1.007,-0.059,0.000,2.930,-1.282,80.000,8033.000,1.000
27.967,6.830,10.136,11.177,7.086,0.173,0.583,1.826,-0.080,1.001,-0.059,-0.031,2.808,-1.251,80.000,8034.000,1.000
29.777,10.846,12.399,13.817,9.795,2.967,2.585,5.370,-0.080,0.998,-0.055,-0.244,2.930,-1.251,80.000,8035.000,1.000
31.046,13.666,14.546,16.431,13.003,6.152,5.455,9.951,-0.081,0.996,-0.055,-0.214,2.869,-1.129,80.000,8036.000,1.000
31.749,14.498,16.330,18.337,16.045,9.194,8.572,14.339,-0.083,0.994,-0.056,-0.122,2.960,-1.190,80.000,8037.000,1.000
31.664,13.936,17.052,19.283,17.470,11.261,10.991,17.751,-0.083,0.991,-0.055,-0.031,2.899,-1.221,80.000,8038.000,1.000
30.410,12.737,16.102,19.136,16.334,11.572,11.781,19.470,-0.085,0.990,-0.051,-0.031,2.869,-1.160,80.000,8039.000,1.000
27.967,10.712,13.656,17.679,13.211,9.872,10.509,18.705,-0.087,0.993,-0.053,-0.092,2.655,-1.099,80.000,8040.000,1.000
25.034,7.510,10.766,15.063,9.853,6.888,7.771,15.371,-0.087,0.990,-0.053,0.122,2.563,-1.007,80.000,8041.000,1.000
22.701,4.204,8.769,12.340,7.914,4.216,5.224,10.942,-0.089,0.992,-0.055,0.183,2.441,-0.946,80.000,8042.000,1.000
21.739,2.959,8.380,10.927,7.848,3.182,4.435,7.664,-0.090,0.991,-0.057,0.275,2.258,-1.099,80.000,8043.000,1.000
22.304,4.854,9.431,11.416,9.054,3.779,5.573,6.635,-0.091,0.993,-0.052,0.366,2.167,-1.221,80.000,8044.000,1.000
24.259,8.838,11.613,13.287,11.036,5.067,7.591,7.194,-0.090,0.994,-0.050,0.427,2.045,-1.282,80.000,8045.000,1.000
27.458,13.059,14.960,15.729,13.878,6.324,9.509,8.234,-0.088,0.996,-0.049,0.488,2.014,-1.282,80.000,8046.000,1.000
31.506,16.655,19.236,18.316,17.381,7.441,11.074,9.521,-0.086,0.996,-0.048,0.580,1.953,-1.221,80.000,8047.000,1.000
35.500,19.825,23.295,20.835,20.360,8.422,12.310,11.464,-0.085,0.999,-0.049,0.641,1.923,-1.312,80.000,8048.000,1.000
38.308,22.497,25.685,22.788,21.457,9.005,12.954,13.948,-0.086,1.000,-0.051,0.610,1.862,-1.282,80.000,8049.000,1.000
39.259,23.743,25.936,23.441,20.610,9.033,12.764,16.004,-0.085,1.001,-0.052,0.610,1.709,-1.373,80.000,8050.000,1.000
38.557,22.911,24.926,22.505,19.189,8.972,12.182,16.800,-0.084,1.004,-0.052,0.580,1.709,-1.312,80.000,8051.000,1.000
36.973,20.754,23.755,20.510,18.362,9.484,12.047,16.420,-0.085,1.001,-0.051,0.671,1.617,-1.343,80.000,8052.000,1.000
35.044,18.708,22.421,18.197,17.653,10.353,12.423,15.266,-0.084,1.004,-0.050,0.549,1.770,-1.373,80.000,8053.000,1.000
32.735,17.247,20.085,15.736,15.715,10.344,12.280,13.103,-0.083,1.004,-0.052,0.641,1.831,-1.312,80.000,8054.000,1.000
30.008,15.552,16.588,12.868,12.272,8.475,10.597,9.235,-0.084,1.002,-0.053,0.610,1.892,-1.282,80.000,8055.000,1.000
27.358,12.822,12.971,9.595,8.479,5.003,7.392,3.596,-0.083,1.000,-0.053,0.580,1.892,-1.221,80.000,8056.000,1.000
25.445,9.610,10.399,6.561,5.496,1.138,3.649,-2.501,-0.083,1.001,-0.050,0.549,1.770,-1.068,80.000,8057.000,1.000
24.419,7.595,9.167,4.778,3.563,-1.860,0.580,-6.869,-0.082,1.001,-0.048,0.671,1.770,-1.129,80.000,8058.000,1.000
23.865,7.783,8.835,4.804,2.467,-3.340,-1.079,-8.035,-0.084,1.002,-0.048,0.793,1.831,-1.160,80.000,8059.000,1.000
23.283,9.166,8.869,6.089,2.184,-3.437,-1.364,-6.391,-0.083,1.002,-0.047,0.854,1.892,-1.129,80.000,8060.000,1.000
22.446,9.674,8.954,7.350,2.720,-2.796,-0.802,-3.570,-0.083,1.002,-0.050,0.854,1.984,-1.038,80.000,8061.000,1.000
21.329,8.432,8.864,7.712,3.587,-2.070,0.134,-0.800,-0.084,1.003,-0.051,0.916,2.075,-1.038,80.000,8062.000,1.000
19.860,6.374,8.230,7.220,3.806,-1.675,1.159,1.649,-0.086,1.004,-0.050,0.946,2.319,-1.068,80.000,8063.000,1.000
17.843,4.510,6.619,6.143,2.589,-1.961,1.793,3.441,-0.086,1.002,-0.051,0.946,2.258,-1.068,80.000,8064.000,1.000
15.203,2.497,3.999,4.290,0.085,-3.217,1.330,3.508,-0.086,1.002,-0.055,0.885,2.289,-0.946,80.000,8065.000,1.000
12.309,-0.463,1.040,1.461,-2.626,-5.209,-0.430,1.061,-0.084,0.998,-0.050,0.977,2.350,-1.007,80.000,8066.000,1.000
9.921,-3.791,-1.284,-1.704,-4.408,-6.972,-2.698,-3.074,-0.084,0.999,-0.049,1.190,2.472,-1.007,80.000,8067.000,1.000
8.710,-5.547,-2.389,-3.886,-4.894,-7.473,-4.281,-6.815,-0.084,0.999,-0.052,1.221,2.502,-1.160,80.000,8068.000,1.000
8.899,-4.464,-2.249,-4.168,-4.355,-6.461,-4.566,-8.618,-0.082,0.999,-0.052,1.404,2.533,-1.068,80.000,8069.000,1.000
10.302,-1.359,-0.955,-2.731,-2.963,-4.477,-3.733,-8.546,-0.084,0.999,-0.052,1.526,2.655,-0.854,80.000,8070.000,1.000
12.444,1.831,1.450,-0.475,-0.667,-2.199,-2.236,-7.535,-0.085,1.000,-0.054,1.587,2.838,-0.854,80.000,8071.000,1.000
14.624,4.003,4.495,1.801,2.097,-0.131,-0.425,-6.096,-0.087,0.999,-0.053,1.678,2.960,-0.854,80.000,8072.000,1.000
16.087,5.400,7.047,3.752,4.143,1.204,1.384,-4.079,-0.085,0.998,-0.052,1.709,3.082,-0.854,80.000,8073.000,1.000
16.397,6.380,8.027,5.224,4.514,1.366,2.842,-1.500,-0.085,0.999,-0.053,1.862,3.174,-0.763,80.000,8074.000,1.000
15.738,6.401,7.347,5.936,3.522,0.431,3.722,0.890,-0.088,1.000,-0.053,1.984,3.143,-0.763,80.000,8075.000,1.000
14.770,4.733,5.871,5.618,2.344,-0.953,4.046,2.138,-0.087,1.000,-0.054,1.984,3.143,-0.610,80.000,8076.000,1.000
14.128,1.915,4.543,4.506,1.716,-2.001,4.057,2.094,-0.088,0.999,-0.052,2.014,3.174,-0.580,80.000,8077.000,1.000
14.017,-0.231,3.727,3.414,1.370,-2.233,3.992,1.499,-0.089,1.000,-0.056,1.953,3.326,-0.519,80.000,8078.000,1.000
14.281,-0.406,3.357,3.028,0.763,-1.705,3.730,0.935,-0.088,0.999,-0.054,1.984,3.296,-0.488,80.000,8079.000,1.000
14.848,0.902,3.566,3.368,0.099,-0.793,2.899,0.149,-0.088,1.000,-0.055,2.045,3.235,-0.427,80.000,8080.000,1.000
16.061,2.473,4.931,4.206,0.409,0.446,1.646,-1.141,-0.087,0.997,-0.057,2.014,3.265,-0.275,80.000,8081.000,1.000
18.420,4.248,7.934,5.773,2.521,2.526,1.003,-2.173,-0.086,1.000,-0.060,1.923,3.204,-0.183,80.000,8082.000,1.000
21.929,7.346,12.230,8.568,6.113,5.852,2.022,-1.583,-0.086,1.002,-0.057,2.045,3.235,-0.122,80.000,8083.000,1.000
25.785,12.099,16.663,12.394,9.982,9.870,4.604,0.992,-0.087,1.001,-0.057,1.892,3.296,0.031,80.000,8084.000,1.000
28.857,16.899,20.087,16.044,13.133,13.233,7.547,4.309,-0.085,1.000,-0.058,1.923,3.265,0.061,80.000,8085.000,1.000
30.493,19.593,22.076,18.274,15.368,14.961,9.766,6.840,-0.085,1.000,-0.057,1.892,3.326,0.092,80.000,8086.000,1.000
30.675,19.693,22.798,18.903,16.776,15.145,11.142,8.343,-0.087,1.000,-0.057,1.862,3.326,0.122,80.000,8087.000,1.000
29.433,18.492,22.295,18.572,17.017,14.361,12.003,9.581,-0.088,0.999,-0.056,1.801,3.265,0.092,80.000,8088.000,1.000
26.652,17.098,20.308,17.631,15.553,12.764,12.201,10.717,-0.089,0.996,-0.057,1.831,3.204,0.153,80.000,8089.000,1.000
22.618,15.235,16.984,15.827,12.646,10.281,11.229,10.802,-0.090,0.996,-0.060,1.831,3.174,0.092,80.000,8090.000,1.000
18.275,12.213,13.260,13.066,9.533,7.415,9.098,9.006,-0.089,0.996,-0.056,1.831,3.082,0.061,80.000,8091.000,1.000
14.597,8.385,10.099,9.927,7.207,5.130,6.495,5.760,-0.088,0.996,-0.058,1.862,2.991,0.000,80.000,8092.000,1.000
11.869,5.063,7.646,7.270,5.454,3.828,4.016,2.336,-0.088,0.996,-0.057,1.801,2.960,-0.061,80.000,8093.000,1.000
9.818,3.100,5.582,5.573,3.593,3.004,1.701,-0.426,-0.088,0.997,-0.058,1.770,2.747,-0.153,80.000,8094.000,1.000
8.368,2.097,4.070,4.758,1.821,2.065,-0.518,-2.655,-0.088,0.997,-0.061,1.801,2.686,-0.122,80.000,8095.000,1.000
7.944,1.262,3.828,4.591,1.179,1.125,-2.211,-4.678,-0.086,1.000,-0.059,1.740,2.563,-0.122,80.000,8096.000,1.000
8.963,0.819,5.263,5.161,2.261,0.868,-2.516,-6.001,-0.084,1.000,-0.058,1.648,2.655,-0.275,80.000,8097.000,1.000
11.157,1.926,7.844,6.784,4.456,1.751,-0.871,-5.490,-0.084,1.000,-0.058,1.770,2.502,-0.183,80.000,8098.000,1.000
13.420,4.821,10.346,9.221,6.490,3.293,2.215,-2.833,-0.083,1.002,-0.060,1.648,2.655,-0.183,80.000,8099.000,1.000
14.510,7.743,11.673,11.273,7.520,4.325,5.314,0.644,-0.085,1.002,-0.058,1.617,2.625,-0.153,80.000,8100.000,1.000
14.005,8.465,11.542,11.656,7.579,4.110,7.213,3.160,-0.083,1.004,-0.060,1.465,2.533,-0.305,80.000,8101.000,1.000
12.305,6.593,10.326,10.185,6.994,2.966,7.757,4.198,-0.082,1.003,-0.059,1.282,2.686,-0.183,80.000,8102.000,1.000
9.875,3.705,8.324,7.754,5.648,1.721,7.468,4.549,-0.081,1.004,-0.059,1.312,2.716,-0.244,80.000,8103.000,1.000
7.017,1.401,5.586,5.308,3.266,0.892,6.691,4.873,-0.078,1.005,-0.058,1.129,2.838,-0.244,80.000,8104.000,1.000
4.242,-0.192,2.475,3.189,0.322,0.522,5.451,4.853,-0.080,1.005,-0.059,0.946,2.991,-0.244,80.000,8105.000,1.000
2.248,-1.799,-0.074,1.425,-1.915,0.554,3.996,3.974,-0.081,1.004,-0.061,0.793,2.960,-0.336,80.000,8106.000,1.000
1.448,-3.357,-1.171,0.315,-2.473,1.096,3.018,2.642,-0.082,1.006,-0.063,0.671,2.838,-0.336,80.000,8107.000,1.000
1.716,-3.768,-0.768,0.319,-1.598,2.112,3.015,1.932,-0.082,1.007,-0.064,0.580,2.960,-0.397,80.000,8108.000,1.000
2.630,-2.408,0.436,1.418,-0.281,3.104,3.640,2.267,-0.083,1.009,-0.059,0.366,2.930,-0.275,80.000,8109.000,1.000
4.020,-0.119,1.917,2.962,1.010,3.520,4.064,2.888,-0.085,1.009,-0.056,0.275,3.052,-0.366,80.000,8110.000,1.000
6.175,1.818,3.825,4.321,2.670,3.377,3.906,2.849,-0.084,1.007,-0.056,0.092,3.052,-0.397,80.000,8111.000,1.000
9.333,3.326,6.431,5.538,5.034,3.213,3.573,2.232,-0.085,1.003,-0.056,0.000,2.960,-0.397,80.000,8112.000,1.000
12.987,5.455,9.376,7.095,7.589,3.420,3.602,1.986,-0.085,1.004,-0.057,0.000,3.052,-0.427,80.000,8113.000,1.000
15.992,8.575,11.757,9.022,9.369,3.734,3.804,2.520,-0.086,1.000,-0.058,-0.122,3.021,-0.458,80.000,8114.000,1.000
17.587,11.503,13.031,10.649,10.091,3.624,3.430,3.069,-0.085,1.000,-0.057,-0.153,3.052,-0.519,80.000,8115.000,1.000
18.056,12.903,13.563,11.430,10.534,3.205,2.319,2.831,-0.084,0.998,-0.052,-0.061,3.052,-0.549,80.000,8116.000,1.000
18.096,12.979,13.998,11.603,11.497,3.392,1.372,2.214,-0.085,0.999,-0.056,-0.031,3.052,-0.641,80.000,8117.000,1.000
17.776,13.030,14.180,11.662,12.600,4.826,1.499,2.289,-0.084,1.000,-0.056,0.031,2.930,-0.671,80.000,8118.000,1.000
16.462,13.425,13.075,11.368,12.523,6.864,2.398,3.122,-0.083,0.998,-0.056,0.000,3.021,-0.671,80.000,8119.000,1.000
13.659,12.759,9.851,9.690,10.402,7.970,2.784,3.309,-0.082,0.997,-0.054,0.031,2.930,-0.702,80.000,8120.000,1.000
9.617,9.419,4.791,5.870,6.610,7.085,1.757,1.450,-0.083,0.996,-0.053,0.031,3.082,-0.824,80.000,8121.000,1.000
5.059,3.704,-0.982,0.447,2.154,4.491,-0.306,-2.179,-0.085,0.996,-0.054,0.214,2.991,-0.641,80.000,8122.000,1.000
0.484,-2.134,-6.403,-4.932,-2.211,1.399,-2.183,-5.727,-0.085,0.996,-0.053,0.244,3.021,-0.763,80.000,8123.000,1.000
-4.040,-6.088,-10.907,-8.765,-6.051,-1.145,-2.980,-7.537,-0.085,0.997,-0.055,0.397,3.082,-0.641,80.000,8124.000,1.000
-8.434,-8.235,-14.264,-10.736,-8.906,-2.991,-2.882,-7.602,-0.086,0.998,-0.054,0.488,3.052,-0.580,80.000,8125.000,1.000
-12.241,-10.047,-16.401,-11.535,-10.415,-4.600,-2.701,-7.076,-0.087,0.998,-0.056,0.580,3.052,-0.519,80.000,8126.000,1.000
-14.901,-12.136,-17.402,-11.772,-10.694,-6.153,-2.787,-6.547,-0.087,0.999,-0.056,0.671,3.021,-0.519,80.000,8127.000,1.000
-16.292,-13.493,-17.585,-11.411,-10.415,-7.305,-2.801,-5.443,-0.088,0.999,-0.052,0.671,2.991,-0.519,80.000,8128.000,1.000
-16.761,-13.130,-17.400,-10.341,-10.294,-7.760,-2.485,-3.298,-0.089,0.999,-0.053,0.732,2.991,-0.610,80.000,8129.000,1.000
-16.567,-11.583,-17.004,-8.966,-10.321,-7.550,-2.012,-0.771,-0.088,1.001,-0.054,0.824,2.991,-0.458,80.000,8130.000,1.000
-15.628,-10.170,-16.059,-7.856,-9.690,-6.656,-1.432,1.145,-0.088,1.000,-0.054,0.824,2.838,-0.427,80.000,8131.000,1.000
-14.034,-9.267,-14.298,-7.113,-7.827,-4.859,-0.315,2.453,-0.088,1.000,-0.054,0.916,2.869,-0.458,80.000,8132.000,1.000
-12.615,-8.202,-12.306,-6.531,-5.365,-2.286,1.652,3.927,-0.089,0.999,-0.054,0.977,2.808,-0.458,80.000,8133.000,1.000
-12.531,-6.829,-11.303,-6.266,-3.703,0.147,3.914,5.615,-0.089,1.000,-0.056,0.977,2.716,-0.488,80.000,8134.000,1.000
-14.147,-6.236,-11.931,-6.870,-3.581,1.308,5.342,6.343,-0.089,1.000,-0.055,1.038,2.686,-0.336,80.000,8135.000,1.000
-16.530,-7.364,-13.530,-8.510,-4.456,0.891,5.327,5.026,-0.089,1.000,-0.055,1.038,2.563,-0.336,80.000,8136.000,1.000
-18.199,-9.409,-14.850,-10.392,-5.387,-0.415,4.256,2.049,-0.088,0.998,-0.057,1.038,2.533,-0.305,80.000,8137.000,1.000
-18.325,-10.322,-15.227,-11.216,-6.070,-1.797,2.921,-1.003,-0.088,0.996,-0.057,1.068,2.472,-0.305,80.000,8138.000,1.000
-17.172,-8.986,-14.801,-10.286,-6.646,-3.058,1.711,-2.890,-0.087,0.998,-0.057,1.007,2.350,-0.336,80.000,8139.000,1.000
-15.522,-6.370,-13.765,-8.064,-6.833,-4.399,0.550,-3.638,-0.087,0.998,-0.055,1.068,2.228,-0.214,80.000,8140.000,1.000
-13.946,-4.310,-11.985,-5.614,-5.961,-5.779,-0.605,-3.944,-0.086,0.999,-0.056,1.129,2.350,-0.366,80.000,8141.000,1.000
-12.717,-3.547,-9.583,-3.701,-4.046,-6.759,-1.484,-4.095,-0.086,0.998,-0.054,1.068,2.289,-0.244,80.000,8142.000,1.000
-12.162,-3.382,-7.436,-2.551,-2.284,-6.956,-1.746,-3.856,-0.086,0.998,-0.055,1.099,2.319,-0.305,80.000,8143.000,1.000
-12.692,-3.141,-6.633,-2.282,-2.044,-6.488,-1.335,-3.287,-0.084,1.000,-0.058,1.099,2.289,-0.244,80.000,8144.000,1.000
-14.330,-3.285,-7.479,-3.129,-3.473,-5.759,-0.461,-3.138,-0.084,1.003,-0.059,1.099,2.319,-0.183,80.000,8145.000,1.000
-16.499,-4.657,-9.279,-5.087,-5.455,-4.901,0.611,-4.042,-0.085,1.002,-0.060,0.977,2.350,-0.183,80.000,8146.000,1.000
-18.572,-7.085,-11.200,-7.589,-6.996,-3.779,1.581,-5.564,-0.083,1.004,-0.059,0.885,2.289,0.000,80.000,8147.000,1.000
-20.511,-9.311,-13.034,-9.785,-8.176,-2.482,2.060,-6.476,-0.084,1.003,-0.058,0.885,2.411,-0.031,80.000,8148.000,1.000
-22.770,-10.489,-15.031,-11.227,-9.590,-1.549,1.610,-6.110,-0.085,1.001,-0.056,0.885,2.289,-0.122,80.000,8149.000,1.000
-25.683,-11.349,-17.314,-12.304,-11.350,-1.662,-0.062,-5.228,-0.085,1.000,-0.055,0.885,2.350,-0.031,80.000,8150.000,1.000
-28.962,-13.210,-19.547,-13.684,-12.874,-2.944,-2.645,-5.056,-0.085,1.000,-0.056,0.793,2.472,-0.092,80.000,8151.000,1.000
-31.777,-15.913,-21.102,-15.235,-13.490,-4.597,-4.937,-5.561,-0.084,1.002,-0.057,0.763,2.411,-0.061,80.000,8152.000,1.000
-33.412,-17.739,-21.667,-16.016,-13.231,-5.650,-5.652,-5.482,-0.085,1.002,-0.057,0.793,2.441,-0.122,80.000,8153.000,1.000
-33.701,-17.533,-21.467,-15.436,-12.773,-5.983,-4.694,-4.110,-0.085,1.000,-0.058,0.763,2.380,-0.153,80.000,8154.000,1.000
-32.829,-16.045,-20.723,-13.928,-12.473,-6.179,-3.208,-2.232,-0.084,1.002,-0.058,0.732,2.563,-0.122,80.000,8155.000,1.000
-31.087,-14.921,-19.390,-12.421,-12.043,-6.648,-2.449,-1.155,-0.083,1.000,-0.056,0.641,2.594,-0.153,80.000,8156.000,1.000
-28.905,-14.913,-17.687,-11.493,-11.444,-7.370,-2.930,-1.301,-0.083,1.000,-0.055,0.610,2.533,-0.183,80.000,8157.000,1.000
-26.912,-15.402,-16.407,-11.119,-11.410,-8.219,-4.420,-1.994,-0.083,1.000,-0.060,0.641,2.625,-0.214,80.000,8158.000,1.000
-25.702,-15.545,-16.252,-11.065,-12.546,-9.127,-6.340,-2.480,-0.082,0.999,-0.057,0.519,2.594,-0.183,80.000,8159.000,1.000
-25.393,-15.404,-16.938,-11.248,-14.246,-9.928,-8.030,-2.748,-0.084,1.000,-0.054,0.519,2.716,-0.305,80.000,8160.000,1.000
-25.445,-15.561,-17.322,-11.573,-15.040,-10.245,-8.818,-3.148,-0.083,1.000,-0.054,0.488,2.686,-0.336,80.000,8161.000,1.000
-25.061,-15.835,-16.468,-11.585,-14.020,-9.631,-8.168,-3.466,-0.084,1.002,-0.053,0.549,2.747,-0.183,80.000,8162.000,1.000
-23.770,-14.977,-14.321,-10.514,-11.536,-7.806,-5.932,-2.831,-0.085,1.002,-0.055,0.336,2.777,-0.244,80.000,8163.000,1.000
-21.621,-12.060,-11.356,-7.900,-8.427,-4.900,-2.557,-0.682,-0.085,1.000,-0.052,0.397,2.777,-0.366,80.000,8164.000,1.000
-19.041,-7.939,-8.053,-4.299,-5.157,-1.657,0.880,2.273,-0.082,1.001,-0.053,0.214,2.777,-0.397,80.000,8165.000,1.000
-16.653,-4.721,-4.945,-1.187,-2.005,0.826,3.069,4.401,-0.082,1.001,-0.053,0.305,2.838,-0.427,80.000,8166.000,1.000
-15.060,-3.665,-2.842,0.128,0.291,1.805,3.242,4.580,-0.085,1.000,-0.052,0.153,2.991,-0.305,80.000,8167.000,1.000
-14.635,-4.200,-2.618,-0.618,0.609,1.223,1.525,3.013,-0.083,1.001,-0.054,0.183,2.991,-0.275,80.000,8168.000,1.000
-15.432,-5.167,-4.516,-2.822,-1.533,-0.541,-1.394,0.593,-0.083,1.003,-0.054,0.183,2.960,-0.305,80.000,8169.000,1.000
-17.146,-6.357,-7.664,-5.703,-5.169,-2.904,-4.670,-2.041,-0.081,1.003,-0.052,0.122,3.113,-0.305,80.000,8170.000,1.000
-19.168,-8.341,-10.629,-8.669,-8.576,-5.236,-7.504,-4.588,-0.079,1.004,-0.051,0.031,3.204,-0.244,80.000,8171.000,1.000
-20.951,-11.163,-12.657,-11.293,-10.899,-7.134,-9.358,-6.634,-0.080,1.005,-0.052,0.153,3.204,-0.305,80.000,8172.000,1.000
-22.488,-13.978,-14.267,-13.346,-12.806,-8.678,-10.225,-7.719,-0.082,1.004,-0.051,0.031,3.235,-0.214,80.000,8173.000,1.000
-24.193,-16.164,-16.448,-14.958,-15.314,-10.295,-10.634,-7.963,-0.081,1.002,-0.052,0.061,3.265,-0.214,80.000,8174.000,1.000
-26.124,-18.099,-19.336,-16.460,-18.218,-12.196,-11.141,-8.149,-0.083,1.002,-0.052,-0.061,3.204,-0.244,80.000,8175.000,1.000
-27.499,-20.284,-21.808,-17.822,-20.055,-13.921,-11.704,-8.840,-0.084,1.000,-0.048,-0.061,3.296,-0.153,80.000,8176.000,1.000
-27.273,-22.011,-22.448,-18.401,-19.647,-14.580,-11.675,-9.593,-0.083,1.000,-0.049,0.092,3.387,-0.183,80.000,8177.000,1.000
-25.207,-21.686,-20.813,-17.469,-17.317,-13.665,-10.503,-9.391,-0.084,1.000,-0.052,0.183,3.296,-0.153,80.000,8178.000,1.000
-22.151,-18.700,-17.683,-15.082,-14.391,-11.628,-8.447,-7.883,-0.084,0.998,-0.052,0.153,3.174,-0.122,80.000,8179.000,1.000
-19.264,-14.529,-14.257,-12.293,-11.877,-9.589,-6.517,-5.955,-0.085,0.997,-0.051,0.336,3.265,-0.122,80.000,8180.000,1.000
-17.185,-11.470,-11.379,-10.418,-9.922,-8.354,-5.565,-4.834,-0.084,0.998,-0.052,0.336,3.113,-0.092,80.000,8181.000,1.000
-15.954,-10.362,-9.459,-9.988,-8.314,-7.679,-5.405,-4.686,-0.085,0.999,-0.050,0.458,3.082,-0.122,80.000,8182.000,1.000
-15.483,-10.116,-8.806,-10.532,-7.137,-6.767,-5.134,-4.552,-0.085,0.998,-0.047,0.519,3.174,-0.061,80.000,8183.000,1.000
-15.837,-9.546,-9.588,-11.344,-6.676,-5.410,-4.288,-3.748,-0.084,0.999,-0.046,0.488,2.991,-0.092,80.000,8184.000,1.000
-16.902,-8.891,-11.312,-12.128,-6.688,-4.187,-3.199,-2.708,-0.086,0.999,-0.045,0.519,2.991,0.000,80.000,8185.000,1.000
-18.088,-9.158,-12.812,-12.831,-6.340,-3.647,-2.305,-2.227,-0.084,0.998,-0.050,0.519,2.930,-0.031,80.000,8186.000,1.000
-18.709,-10.502,-13.183,-13.215,-5.267,-3.854,-1.711,-2.347,-0.084,0.997,-0.047,0.641,2.808,0.000,80.000,8187.000,1.000
-18.548,-11.827,-12.560,-12.932,-4.271,-4.690,-1.524,-2.458,-0.084,0.996,-0.048,0.793,2.960,0.000,80.000,8188.000,1.000
-17.827,-12.108,-11.799,-12.090,-4.537,-6.187,-2.220,-2.414,-0.085,0.996,-0.049,0.946,2.930,-0.031,80.000,8189.000,1.000
-16.681,-11.557,-11.422,-11.367,-6.184,-8.243,-4.213,-2.940,-0.085,0.994,-0.049,1.007,2.960,-0.092,80.000,8190.000,1.000
-14.905,-10.857,-10.916,-11.164,-7.776,-9.997,-6.900,-4.417,-0.083,0.995,-0.053,1.007,2.899,-0.092,80.000,8191.000,1.000
-12.289,-9.646,-9.199,-10.826,-7.522,-9.922,-8.555,-5.704,-0.083,0.997,-0.054,1.251,2.899,-0.092,80.000,8192.000,1.000
-9.072,-6.735,-5.865,-9.210,-4.997,-7.139,-7.783,-5.014,-0.083,0.996,-0.052,1.251,2.808,-0.092,80.000,8193.000,1.000
-5.915,-2.029,-1.743,-6.015,-1.454,-2.590,-5.003,-1.971,-0.084,1.000,-0.051,1.251,2.808,-0.153,80.000,8194.000,1.000
-3.446,2.544,1.864,-2.311,1.522,1.502,-2.136,1.737,-0.085,1.001,-0.048,1.312,2.777,-0.092,80.000,8195.000,1.000
-1.906,4.568,4.142,0.283,3.171,3.330,-0.896,3.887,-0.082,1.000,-0.049,1.251,2.808,-0.183,80.000,8196.000,1.000
-1.168,3.511,4.944,0.911,3.444,2.683,-1.494,3.705,-0.081,1.000,-0.050,1.160,2.747,-0.183,80.000,8197.000,1.000
-0.973,1.176,4.498,0.069,2.526,0.781,-2.778,2.285,-0.082,1.000,-0.052,1.190,2.808,-0.122,80.000,8198.000,1.000
-1.141,-0.361,3.248,-1.109,0.844,-0.901,-3.505,1.099,-0.081,1.001,-0.048,1.160,2.747,-0.244,80.000,8199.000,1.000
-1.461,-0.747,1.892,-1.941,-0.736,-1.628,-3.373,0.434,-0.081,1.005,-0.053,1.160,2.747,-0.305,80.000,8200.000,1.000
-1.398,-0.807,1.321,-2.314,-1.170,-1.328,-2.745,-0.333,-0.082,1.004,-0.052,1.007,2.655,-0.366,80.000,8201.000,1.000
-0.339,-0.662,2.116,-2.075,-0.026,-0.051,-1.804,-1.320,-0.083,1.006,-0.052,1.007,2.502,-0.305,80.000,8202.000,1.000
1.676,0.639,3.977,-0.937,2.013,2.037,-0.495,-1.799,-0.082,1.006,-0.051,0.916,2.533,-0.427,80.000,8203.000,1.000
3.739,3.546,5.934,0.977,3.786,4.387,0.903,-1.306,-0.081,1.007,-0.049,0.854,2.625,-0.397,80.000,8204.000,1.000
4.906,6.917,7.282,2.968,4.878,6.295,1.750,-0.399,-0.081,1.006,-0.049,0.793,2.686,-0.458,80.000,8205.000,1.000
5.117,9.111,8.188,4.431,5.947,7.552,1.793,0.140,-0.083,1.004,-0.048,0.671,2.686,-0.458,80.000,8206.000,1.000
5.035,9.848,9.225,5.506,7.713,8.643,1.636,0.502,-0.084,1.004,-0.052,0.580,2.563,-0.519,80.000,8207.000,1.000
5.163,10.385,10.509,6.809,9.945,10.095,2.192,1.677,-0.084,1.002,-0.053,0.549,2.563,-0.702,80.000,8208.000,1.000
5.571,11.818,11.675,8.603,11.815,11.839,3.764,4.108,-0.084,1.000,-0.053,0.580,2.625,-0.732,80.000,8209.000,1.000
6.453,13.861,12.730,10.517,13.121,13.437,5.929,7.014,-0.083,1.002,-0.052,0.610,2.655,-0.641,80.000,8210.000,1.000
8.319,15.566,14.373,12.082,14.563,14.760,8.196,9.232,-0.082,1.001,-0.053,0.610,2.655,-0.580,80.000,8211.000,1.000
11.120,16.620,16.889,13.094,16.460,15.899,10.259,10.220,-0.083,1.001,-0.055,0.549,2.625,-0.549,80.000,8212.000,1.000
13.440,17.190,18.990,13.184,17.581,16.328,11.439,9.840,-0.083,1.002,-0.055,0.580,2.594,-0.549,80.000,8213.000,1.000
13.224,16.845,18.592,11.557,16.081,14.807,10.546,7.626,-0.083,1.002,-0.054,0.488,2.625,-0.671,80.000,8214.000,1.000
9.530,14.450,14.953,7.646,11.621,10.578,6.832,3.015,-0.084,1.004,-0.052,0.519,2.625,-0.549,80.000,8215.000,1.000
3.465,9.487,9.519,1.977,5.868,4.351,0.909,-3.634,-0.083,1.004,-0.052,0.488,2.594,-0.549,80.000,8216.000,1.000
-2.520,3.325,4.605,-3.716,0.881,-2.026,-5.444,-10.505,-0.083,1.003,-0.052,0.549,2.747,-0.580,80.000,8217.000,1.000
-6.155,-1.223,1.708,-7.334,-2.334,-6.624,-10.243,-15.062,-0.084,1.001,-0.051,0.580,2.686,-0.488,80.000,8218.000,1.000
-6.505,-2.027,1.103,-7.703,-3.638,-8.300,-12.201,-15.700,-0.084,1.001,-0.053,0.610,2.655,-0.366,80.000,8219.000,1.000
-4.059,0.693,2.520,-5.280,-2.913,-6.993,-11.106,-12.849,-0.083,1.000,-0.052,0.671,2.686,-0.397,80.000,8220.000,1.000
-0.073,4.939,5.584,-1.598,-0.088,-3.516,-7.691,-8.358,-0.082,0.997,-0.054,0.763,2.625,-0.519,80.000,8221.000,1.000
4.082,8.927,9.528,1.962,4.033,0.829,-3.255,-3.921,-0.081,0.995,-0.050,0.702,2.655,-0.427,80.000,8222.000,1.000
7.214,12.137,12.973,4.787,7.627,4.633,0.718,-0.333,-0.083,0.996,-0.053,0.885,2.686,-0.519,80.000,8223.000,1.000
8.526,14.410,14.477,6.558,8.925,6.655,2.810,1.837,-0.082,0.997,-0.054,0.916,2.747,-0.427,80.000,8224.000,1.000
8.007,14.886,13.537,6.742,7.492,6.191,2.073,1.643,-0.082,0.999,-0.052,0.916,2.747,-0.488,80.000,8225.000,1.000
6.614,12.871,11.129,5.184,4.569,3.740,-1.137,-1.311,-0.082,1.000,-0.051,1.007,2.747,-0.519,80.000,8226.000,1.000
5.694,9.571,9.077,3.009,2.190,1.195,-4.772,-5.488,-0.083,0.999,-0.050,1.038,2.686,-0.610,80.000,8227.000,1.000
5.900,7.652,8.544,2.065,1.628,0.499,-6.389,-8.073,-0.082,1.002,-0.046,1.099,2.686,-0.580,80.000,8228.000,1.000
6.717,8.485,9.099,3.112,2.504,1.714,-5.372,-7.612,-0.082,1.003,-0.050,1.099,2.655,-0.549,80.000,8229.000,1.000
7.301,10.655,9.541,5.064,3.585,3.030,-3.385,-5.371,-0.082,1.006,-0.050,1.099,2.594,-0.549,80.000,8230.000,1.000
7.537,11.817,9.435,6.310,4.238,2.949,-2.333,-3.620,-0.082,1.004,-0.052,1.190,2.655,-0.580,80.000,8231.000,1.000
7.928,11.400,9.345,6.343,4.642,1.769,-2.525,-3.189,-0.082,1.002,-0.053,1.068,2.838,-0.610,80.000,8232.000,1.000
8.704,10.813,9.743,5.849,4.892,0.757,-3.051,-3.243,-0.081,1.000,-0.050,1.099,2.869,-0.671,80.000,8233.000,1.000
9.594,11.265,10.339,5.572,4.686,0.562,-3.217,-2.983,-0.081,0.997,-0.052,1.160,2.930,-0.702,80.000,8234.000,1.000
10.346,12.216,10.642,5.502,4.010,0.889,-3.059,-2.741,-0.081,0.997,-0.052,1.221,2.930,-0.519,80.000,8235.000,1.000
11.032,12.315,10.704,5.213,3.534,1.358,-2.717,-3.215,-0.082,0.997,-0.052,1.373,2.869,-0.641,80.000,8236.000,1.000
11.727,11.349,10.898,4.626,3.891,2.067,-1.946,-4.184,-0.081,0.996,-0.051,1.404,2.808,-0.610,80.000,8237.000,1.000
12.243,10.522,11.159,4.180,4.772,3.161,-0.535,-4.604,-0.081,0.995,-0.052,1.465,2.869,-0.610,80.000,8238.000,1.000
12.377,10.790,10.990,4.306,5.248,4.249,1.070,-3.898,-0.080,0.996,-0.053,1.617,2.960,-0.641,80.000,8239.000,1.000
12.277,11.591,10.299,4.989,4.976,4.641,2.023,-2.648,-0.082,0.995,-0.055,1.709,2.930,-0.641,80.000,8240.000,1.000
12.424,11.694,9.815,5.982,4.646,4.123,1.972,-1.754,-0.084,0.993,-0.054,1.740,2.960,-0.519,80.000,8241.000,1.000
13.197,10.945,10.360,7.228,5.002,3.217,1.414,-1.274,-0.085,0.995,-0.056,1.923,2.899,-0.610,80.000,8242.000,1.000
14.451,10.446,11.811,8.773,5.749,2.560,1.000,-0.541,-0.085,0.997,-0.055,1.953,2.960,-0.732,80.000,8243.000,1.000
15.625,10.942,13.164,10.360,5.920,2.265,0.809,0.742,-0.087,0.997,-0.053,1.984,2.838,-0.824,80.000,8244.000,1.000
16.247,11.748,13.683,11.445,5.326,2.144,0.634,2.074,-0.090,0.999,-0.053,2.045,2.686,-0.885,80.000,8245.000,1.000
16.216,11.710,13.610,11.716,5.037,2.340,0.734,2.965,-0.089,1.000,-0.052,2.045,2.686,-0.824,80.000,8246.000,1.000
15.601,10.805,13.502,11.391,6.010,3.290,1.762,3.701,-0.087,1.001,-0.053,2.045,2.563,-0.916,80.000,8247.000,1.000
14.238,10.091,13.176,10.819,7.655,4.940,3.802,4.843,-0.086,1.005,-0.054,1.953,2.533,-1.007,80.000,8248.000,1.000
11.716,10.082,11.787,9.862,8.342,6.368,5.847,6.128,-0.087,1.007,-0.054,1.984,2.472,-1.129,80.000,8249.000,1.000
8.111,9.948,9.127,8.106,7.314,6.601,6.636,6.459,-0.085,1.010,-0.055,1.862,2.441,-1.221,80.000,8250.000,1.000
4.592,8.767,6.424,5.804,5.626,5.722,6.007,5.268,-0.083,1.010,-0.055,1.770,2.350,-1.160,80.000,8251.000,1.000
2.709,6.984,5.284,4.136,4.863,4.721,5.035,3.454,-0.084,1.009,-0.052,1.617,2.289,-1.160,80.000,8252.000,1.000
2.989,6.000,5.986,4.187,5.341,4.270,4.759,2.568,-0.085,1.010,-0.052,1.373,2.258,-1.190,80.000,8253.000,1.000
4.590,6.502,7.438,5.917,6.182,4.132,5.244,3.284,-0.086,1.010,-0.055,1.251,2.167,-1.221,80.000,8254.000,1.000
6.351,7.719,8.695,8.288,6.886,3.860,5.967,4.946,-0.083,1.008,-0.057,1.099,2.136,-1.190,80.000,8255.000,1.000
7.813,8.467,9.870,10.254,7.952,3.648,6.694,6.539,-0.081,1.009,-0.056,0.854,2.167,-1.129,80.000,8256.000,1.000
9.112,8.656,11.455,11.531,9.867,4.268,7.705,7.833,-0.082,1.008,-0.055,0.793,2.167,-1.129,80.000,8257.000,1.000
10.262,9.311,13.183,12.402,12.037,6.186,9.209,9.308,-0.083,1.007,-0.054,0.732,2.136,-1.160,80.000,8258.000,1.000
10.770,10.869,13.878,12.794,13.102,8.729,10.628,10.974,-0.085,1.005,-0.057,0.641,2.197,-1.068,80.000,8259.000,1.000
9.921,12.040,12.520,11.908,12.246,10.328,10.743,11.758,-0.084,1.004,-0.057,0.641,2.319,-1.068,80.000,8260.000,1.000
7.451,10.984,9.261,9.048,9.878,9.808,8.781,10.467,-0.083,1.000,-0.053,0.549,2.289,-1.007,80.000,8261.000,1.000
3.906,7.384,5.180,4.559,6.835,7.245,5.105,7.087,-0.084,1.001,-0.050,0.519,2.258,-0.946,80.000,8262.000,1.000
0.248,2.833,1.256,-0.299,3.386,3.521,0.702,2.775,-0.084,1.001,-0.052,0.458,2.197,-0.854,80.000,8263.000,1.000
-2.713,-0.805,-1.980,-4.262,-0.438,-0.459,-3.608,-1.233,-0.086,1.000,-0.052,0.549,2.197,-0.763,80.000,8264.000,1.000
-4.415,-2.959,-3.973,-6.691,-3.863,-3.920,-7.263,-4.379,-0.084,0.999,-0.049,0.488,2.319,-0.641,80.000,8265.000,1.000
-4.504,-4.144,-4.058,-7.531,-5.516,-6.062,-9.632,-6.496,-0.087,0.997,-0.051,0.488,2.472,-0.641,80.000,8266.000,1.000
-3.075,-4.641,-2.212,-6.961,-4.782,-6.283,-10.074,-7.186,-0.087,0.996,-0.054,0.427,2.441,-0.671,80.000,8267.000,1.000
-0.894,-4.018,0.457,-5.260,-2.569,-4.638,-8.398,-5.910,-0.087,0.996,-0.052,0.549,2.472,-0.732,80.000,8268.000,1.000
0.968,-2.132,2.442,-2.911,-0.337,-1.912,-5.158,-2.739,-0.087,0.997,-0.051,0.519,2.380,-0.763,80.000,8269.000,1.000
1.895,-0.008,3.117,-0.595,1.390,0.900,-1.364,1.284,-0.087,0.995,-0.052,0.549,2.441,-0.671,80.000,8270.000,1.000
2.172,0.963,3.110,1.168,3.168,3.236,2.139,4.844,-0.087,0.994,-0.051,0.610,2.319,-0.671,80.000,8271.000,1.000
2.596,0.685,3.415,2.411,5.471,5.161,5.117,7.520,-0.086,0.993,-0.054,0.732,2.350,-0.732,80.000,8272.000,1.000
3.589,0.530,4.322,3.599,7.826,6.932,7.699,9.914,-0.087,0.994,-0.054,0.732,2.350,-0.824,80.000,8273.000,1.000
4.707,1.459,5.258,4.930,9.192,8.297,9.653,12.401,-0.087,0.997,-0.052,0.916,2.411,-0.977,80.000,8274.000,1.000
5.204,2.624,5.626,6.003,9.092,8.511,10.254,14.185,-0.085,0.999,-0.051,0.885,2.411,-1.038,80.000,8275.000,1.000
4.887,2.455,5.520,6.322,8.113,7.228,9.146,14.120,-0.084,0.999,-0.050,0.916,2.563,-0.977,80.000,8276.000,1.000
4.098,0.678,5.336,5.899,7.065,5.017,6.966,12.178,-0.085,0.999,-0.048,0.824,2.563,-1.038,80.000,8277.000,1.000
3.086,-1.416,4.996,5.190,5.952,2.804,4.698,9.516,-0.083,0.999,-0.051,0.916,2.747,-0.977,80.000,8278.000,1.000
1.765,-2.663,3.997,4.502,4.196,1.031,2.586,7.069,-0.082,0.999,-0.051,0.977,2.808,-1.007,80.000,8279.000,1.000
0.050,-3.382,2.171,3.578,1.738,-0.445,0.093,4.577,-0.082,0.998,-0.055,1.038,2.930,-0.977,80.000,8280.000,1.000
-1.690,-4.547,0.127,1.999,-0.545,-1.694,-3.020,1.419,-0.084,0.996,-0.056,1.160,3.082,-0.824,80.000,8281.000,1.000
-2.659,-5.973,-1.200,-0.018,-1.691,-2.257,-5.955,-1.951,-0.083,0.996,-0.051,1.190,3.143,-0.793,80.000,8282.000,1.000
-2.394,-6.308,-1.487,-1.676,-1.790,-1.723,-7.568,-4.126,-0.085,0.996,-0.048,1.251,3.174,-0.702,80.000,8283.000,1.000
-1.333,-5.029,-1.367,-2.543,-1.945,-0.594,-7.646,-4.370,-0.086,0.998,-0.047,1.312,3.235,-0.580,80.000,8284.000,1.000
-0.355,-3.576,-1.658,-3.040,-2.965,-0.090,-7.056,-3.495,-0.086,0.997,-0.049,1.404,3.265,-0.549,80.000,8285.000,1.000
0.077,-3.929,-2.487,-3.787,-4.498,-0.971,-6.633,-2.790,-0.089,0.997,-0.050,1.495,3.387,-0.549,80.000,8286.000,1.000
0.095,-6.384,-3.438,-4.717,-5.685,-2.875,-6.312,-2.461,-0.089,0.997,-0.051,1.617,3.296,-0.641,80.000,8287.000,1.000
-0.138,-9.351,-4.394,-5.198,-6.375,-4.913,-5.584,-1.696,-0.089,0.997,-0.052,1.709,3.326,-0.610,80.000,8288.000,1.000
-0.794,-11.337,-5.807,-5.034,-7.191,-6.583,-4.466,-0.191,-0.089,0.997,-0.052,1.740,3.265,-0.610,80.000,8289.000,1.000
-1.986,-12.411,-7.914,-4.839,-8.339,-7.788,-3.502,1.128,-0.089,0.998,-0.052,1.740,3.235,-0.702,80.000,8290.000,1.000
-3.221,-13.279,-9.944,-5.151,-8.871,-8.166,-2.785,1.334,-0.091,1.000,-0.054,1.831,3.174,-0.763,80.000,8291.000,1.000
-3.609,-13.538,-10.577,-5.559,-7.628,-7.007,-1.602,0.902,-0.089,1.000,-0.054,1.831,3.174,-0.610,80.000,8292.000,1.000
-2.682,-11.752,-9.260,-5.121,-4.713,-4.082,0.652,1.238,-0.090,1.002,-0.055,1.923,3.052,-0.580,80.000,8293.000,1.000
-0.805,-7.322,-6.663,-3.481,-1.418,-0.185,3.610,3.028,-0.089,1.000,-0.053,1.831,2.960,-0.610,80.000,8294.000,1.000
1.234,-1.701,-3.828,-1.291,1.229,3.398,6.280,5.517,-0.090,1.005,-0.054,1.709,2.960,-0.458,80.000,8295.000,1.000
2.849,2.614,-1.385,0.397,3.179,5.819,7.993,7.421,-0.089,1.004,-0.052,1.709,2.960,-0.458,80.000,8296.000,1.000
3.815,4.263,0.338,1.030,4.585,6.967,8.798,8.250,-0.090,1.005,-0.052,1.648,2.838,-0.427,80.000,8297.000,1.000
3.870,3.756,0.798,0.688,4.862,6.958,8.910,8.409,-0.090,1.006,-0.052,1.587,2.808,-0.397,80.000,8298.000,1.000
2.531,1.960,-0.783,-0.572,2.937,5.474,7.881,8.000,-0.089,1.006,-0.053,1.526,2.808,-0.366,80.000,8299.000,1.000
-0.283,-1.210,-4.548,-2.978,-1.393,2.073,4.892,6.237,-0.090,1.007,-0.049,1.495,2.777,-0.397,80.000,8300.000,1.000
-3.595,-5.865,-9.217,-6.312,-6.602,-2.642,0.187,2.632,-0.089,1.011,-0.047,1.434,2.686,-0.214,80.000,8301.000,1.000
-5.891,-10.661,-12.781,-9.377,-10.479,-6.797,-4.420,-1.776,-0.088,1.011,-0.047,1.251,2.686,-0.336,80.000,8302.000,1.000
-6.350,-13.308,-14.135,-10.672,-12.015,-8.702,-6.994,-5.041,-0.088,1.009,-0.052,1.099,2.686,-0.244,80.000,8303.000,1.000
-5.234,-12.623,-13.593,-9.545,-11.729,-8.205,-7.046,-6.038,-0.091,1.008,-0.050,1.038,2.563,-0.275,80.000,8304.000,1.000
-3.119,-9.557,-11.849,-6.528,-10.270,-6.340,-5.405,-5.165,-0.090,1.008,-0.052,0.854,2.594,-0.305,80.000,8305.000,1.000
-0.166,-5.988,-9.066,-2.631,-7.517,-3.996,-2.922,-3.379,-0.093,1.005,-0.048,0.854,2.502,-0.214,80.000,8306.000,1.000
3.670,-2.784,-5.197,1.496,-3.345,-1.336,0.230,-0.945,-0.089,1.006,-0.054,0.763,2.472,-0.244,80.000,8307.000,1.000
7.958,0.565,-0.809,5.642,1.358,1.632,4.074,2.524,-0.086,1.002,-0.052,0.702,2.472,-0.122,80.000,8308.000,1.000
11.648,4.392,2.857,9.424,5.043,4.372,8.041,6.868,-0.085,0.998,-0.054,0.671,2.350,-0.122,80.000,8309.000,1.000
13.702,7.519,4.700,11.895,6.760,5.970,10.978,10.675,-0.085,0.998,-0.055,0.854,2.380,-0.031,80.000,8310.000,1.000
13.762,8.125,4.523,12.063,6.728,5.903,11.986,12.220,-0.084,0.997,-0.054,0.885,2.533,-0.031,80.000,8311.000,1.000
12.146,5.812,2.900,9.831,5.621,4.498,11.153,11.029,-0.083,0.998,-0.055,0.977,2.563,0.092,80.000,8312.000,1.000
9.368,2.136,0.393,6.195,3.637,2.487,9.238,8.117,-0.082,0.996,-0.053,1.038,2.686,0.214,80.000,8313.000,1.000
5.887,-1.144,-2.766,2.405,0.628,0.281,6.755,4.689,-0.084,0.997,-0.054,1.068,2.625,0.183,80.000,8314.000,1.000
2.242,-3.733,-6.155,-0.829,-2.938,-2.058,3.807,1.170,-0.084,0.994,-0.055,1.129,2.686,0.153,80.000,8315.000,1.000
-0.823,-6.300,-8.817,-3.245,-5.737,-4.280,0.733,-2.319,-0.084,0.992,-0.055,1.221,2.716,0.122,80.000,8316.000,1.000
-2.608,-8.771,-9.825,-4.540,-6.701,-5.797,-1.641,-5.049,-0.082,0.991,-0.054,1.312,2.838,0.183,80.000,8317.000,1.000
-2.942,-9.934,-9.152,-4.375,-6.108,-6.217,-2.638,-5.911,-0.082,0.992,-0.054,1.556,2.838,0.244,80.000,8318.000,1.000
-2.314,-8.958,-7.672,-2.894,-5.130,-5.807,-2.372,-4.605,-0.083,0.991,-0.052,1.556,2.930,0.153,80.000,8319.000,1.000
-1.364,-6.594,-6.153,-0.876,-4.290,-5.071,-1.379,-2.056,-0.084,0.993,-0.052,1.740,2.930,0.183,80.000,8320.000,1.000
-0.339,-4.309,-4.487,0.943,-2.797,-3.863,0.324,0.655,-0.085,0.996,-0.053,1.862,2.991,0.214,80.000,8321.000,1.000
0.844,-2.585,-2.213,2.525,0.234,-1.434,3.285,3.385,-0.086,0.996,-0.054,1.984,2.991,0.183,80.000,8322.000,1.000
2.019,-0.779,0.361,4.176,4.170,2.316,7.529,6.510,-0.084,0.997,-0.055,2.136,3.021,0.153,80.000,8323.000,1.000
2.512,1.247,1.997,5.681,7.012,5.985,11.709,9.563,-0.084,0.999,-0.057,2.197,2.930,0.061,80.000,8324.000,1.000
1.692,2.101,1.596,6.077,7.164,7.525,13.704,10.828,-0.083,0.999,-0.056,2.106,3.021,-0.092,80.000,8325.000,1.000
-0.321,0.214,-0.757,4.502,4.730,6.044,12.282,8.770,-0.083,0.999,-0.057,2.045,3.052,-0.244,80.000,8326.000,1.000
-2.649,-3.898,-3.806,1.331,1.190,2.710,8.270,3.908,-0.082,1.001,-0.055,2.045,2.930,-0.214,80.000,8327.000,1.000
-4.427,-7.536,-6.165,-1.813,-1.918,-0.220,3.940,-1.212,-0.082,1.003,-0.054,2.014,3.021,-0.275,80.000,8328.000,1.000
-5.449,-8.456,-7.289,-3.501,-3.906,-1.347,1.039,-4.290,-0.082,1.003,-0.056,2.014,3.021,-0.305,80.000,8329.000,1.000
-5.945,-7.078,-7.365,-3.678,-4.752,-0.956,-0.351,-5.171,-0.082,1.003,-0.059,1.740,3.021,-0.336,80.000,8330.000,1.000
-5.978,-5.617,-6.650,-3.251,-4.630,-0.186,-1.114,-5.260,-0.081,1.004,-0.059,1.740,3.143,-0.427,80.000,8331.000,1.000
-5.407,-5.491,-5.394,-2.924,-4.011,0.002,-1.910,-5.571,-0.080,1.004,-0.058,1.709,3.082,-0.488,80.000,8332.000,1.000
-4.335,-6.168,-4.182,-2.733,-3.801,-0.860,-2.834,-5.856,-0.079,1.003,-0.058,1.740,3.021,-0.427,80.000,8333.000,1.000
-3.339,-6.586,-3.828,-2.552,-4.777,-2.878,-3.839,-5.569,-0.082,1.002,-0.057,1.648,3.052,-0.366,80.000,8334.000,1.000
-3.088,-6.942,-4.750,-2.644,-6.820,-5.877,-5.032,-5.007,-0.081,1.003,-0.058,1.495,3.204,-0.366,80.000,8335.000,1.000
-3.760,-8.277,-6.467,-3.329,-8.851,-9.171,-6.336,-4.881,-0.082,1.004,-0.056,1.495,3.235,-0.336,80.000,8336.000,1.000
-4.978,-10.564,-7.900,-4.230,-9.718,-11.574,-7.136,-5.025,-0.082,1.004,-0.058,1.404,3.265,-0.397,80.000,8337.000,1.000
-6.214,-12.177,-8.269,-4.344,-9.185,-12.118,-6.757,-4.351,-0.085,1.004,-0.057,1.312,3.235,-0.336,80.000,8338.000,1.000
-7.080,-11.686,-7.656,-3.101,-7.968,-10.895,-5.369,-2.353,-0.085,1.002,-0.059,1.282,3.143,-0.305,80.000,8339.000,1.000
-7.345,-9.662,-6.658,-1.128,-6.843,-8.977,-4.069,-0.104,-0.085,1.001,-0.056,1.190,3.235,-0.397,80.000,8340.000,1.000
-6.732,-7.858,-5.516,0.468,-5.828,-7.288,-3.727,0.878,-0.086,1.000,-0.056,1.282,3.174,-0.397,80.000,8341.000,1.000
-4.965,-6.899,-3.927,1.320,-4.460,-5.824,-4.027,0.453,-0.086,1.001,-0.056,1.251,3.204,-0.397,80.000,8342.000,1.000
-2.353,-5.836,-1.952,1.781,-2.886,-4.289,-4.111,-0.193,-0.087,1.000,-0.057,1.343,3.113,-0.397,80.000,8343.000,1.000
0.005,-3.985,-0.487,1.986,-2.038,-3.009,-3.805,-0.261,-0.087,1.003,-0.056,1.343,3.082,-0.427,80.000,8344.000,1.000
1.088,-2.194,-0.357,1.553,-2.452,-2.682,-3.661,-0.231,-0.085,1.003,-0.057,1.129,3.052,-0.458,80.000,8345.000,1.000
0.922,-1.820,-1.348,0.236,-3.488,-3.386,-3.969,-0.926,-0.087,1.003,-0.056,1.099,2.899,-0.427,80.000,8346.000,1.000
0.294,-2.953,-2.598,-1.550,-4.159,-4.335,-4.277,-2.201,-0.086,1.002,-0.054,1.007,2.899,-0.427,80.000,8347.000,1.000
-0.363,-4.274,-3.698,-3.044,-4.403,-4.798,-4.115,-3.099,-0.087,1.000,-0.055,0.916,2.869,-0.427,80.000,8348.000,1.000
-1.266,-4.619,-4.872,-3.824,-4.950,-4.824,-3.747,-3.115,-0.085,1.000,-0.053,0.824,2.869,-0.427,80.000,8349.000,1.000
-2.460,-4.136,-6.070,-4.002,-5.970,-4.747,-3.777,-2.792,-0.085,0.999,-0.054,0.824,2.808,-0.458,80.000,8350.000,1.000
-3.393,-3.722,-6.601,-3.910,-6.613,-4.547,-4.333,-3.002,-0.085,1.000,-0.056,0.824,2.686,-0.488,80.000,8351.000,1.000
-3.568,-3.633,-5.958,-3.735,-6.164,-4.043,-5.020,-3.923,-0.084,1.000,-0.056,0.793,2.625,-0.488,80.000,8352.000,1.000
-3.118,-3.034,-4.552,-3.418,-5.040,-3.308,-5.438,-4.894,-0.083,1.000,-0.053,0.793,2.747,-0.549,80.000,8353.000,1.000
-2.560,-1.178,-3.345,-2.948,-4.270,-2.645,-5.590,-5.307,-0.084,0.999,-0.055,0.824,2.686,-0.427,80.000,8354.000,1.000
-2.217,1.275,-2.915,-2.659,-4.295,-2.333,-5.828,-5.457,-0.083,0.999,-0.054,0.885,2.594,-0.397,80.000,8355.000,1.000
-1.981,2.750,-3.010,-2.933,-4.627,-2.354,-6.379,-6.078,-0.085,1.001,-0.053,1.068,2.686,-0.305,80.000,8356.000,1.000
-1.560,2.663,-2.951,-3.529,-4.555,-2.267,-6.889,-7.037,-0.084,1.002,-0.053,1.038,2.594,-0.275,80.000,8357.000,1.000
-0.956,2.163,-2.381,-3.595,-3.913,-1.554,-6.608,-7.102,-0.085,1.005,-0.053,1.007,2.655,-0.336,80.000,8358.000,1.000
-0.619,2.505,-1.629,-2.667,-3.146,-0.351,-5.296,-5.464,-0.084,1.007,-0.055,1.007,2.594,-0.366,80.000,8359.000,1.000
-0.990,3.265,-1.264,-1.432,-2.729,0.418,-3.693,-3.048,-0.086,1.005,-0.054,0.977,2.594,-0.427,80.000,8360.000,1.000
-1.900,2.969,-1.388,-1.095,-2.640,-0.007,-2.762,-1.641,-0.086,1.004,-0.054,1.038,2.563,-0.305,80.000,8361.000,1.000
-2.777,1.130,-1.777,-2.151,-2.712,-1.509,-2.790,-2.018,-0.084,1.001,-0.056,1.099,2.563,-0.366,80.000,8362.000,1.000
-3.502,-1.120,-2.580,-4.089,-3.285,-3.494,-3.470,-3.424,-0.086,1.000,-0.053,1.129,2.502,-0.366,80.000,8363.000,1.000
-4.587,-2.384,-4.200,-6.040,-4.740,-5.396,-4.334,-4.639,-0.087,1.000,-0.052,1.221,2.533,-0.427,80.000,8364.000,1.000
-6.423,-2.512,-6.429,-7.485,-6.485,-6.669,-4.894,-5.164,-0.087,0.997,-0.052,1.160,2.533,-0.397,80.000,8365.000,1.000
-8.646,-2.469,-8.288,-8.380,-7.190,-6.817,-4.717,-5.306,-0.089,0.996,-0.055,1.343,2.563,-0.427,80.000,8366.000,1.000
-10.324,-2.761,-8.845,-8.699,-6.158,-5.646,-3.597,-5.285,-0.089,0.994,-0.056,1.495,2.472,-0.336,80.000,8367.000,1.000
-10.770,-2.655,-8.053,-8.209,-4.118,-3.517,-1.818,-4.812,-0.087,0.994,-0.054,1.556,2.472,-0.275,80.000,8368.000,1.000
-10.075,-1.418,-6.708,-6.913,-2.518,-1.363,-0.295,-3.839,-0.087,0.992,-0.056,1.617,2.502,-0.153,80.000,8369.000,1.000
-8.747,0.323,-5.527,-5.321,-2.075,-0.196,-0.072,-3.135,-0.087,0.994,-0.056,1.678,2.441,-0.153,80.000,8370.000,1.000
-7.084,1.140,-4.497,-3.983,-2.269,-0.385,-1.439,-3.583,-0.086,0.993,-0.057,1.678,2.380,-0.244,80.000,8371.000,1.000
-5.201,0.583,-3.250,-2.923,-2.286,-1.428,-3.632,-5.006,-0.084,0.995,-0.054,1.831,2.472,-0.122,80.000,8372.000,1.000
-3.371,-0.145,-1.760,-1.683,-1.997,-2.376,-5.379,-6.058,-0.084,0.998,-0.053,1.953,2.563,-0.122,80.000,8373.000,1.000
-2.093,0.276,-0.538,-0.051,-1.883,-2.655,-5.917,-5.621,-0.085,1.000,-0.055,1.953,2.533,-0.061,80.000,8374.000,1.000
-1.886,1.328,-0.341,1.224,-2.387,-2.612,-5.638,-4.214,-0.084,1.000,-0.056,2.014,2.502,-0.031,80.000,8375.000,1.000
-3.015,1.001,-1.683,0.856,-3.597,-3.181,-5.645,-3.539,-0.085,1.003,-0.055,1.984,2.502,-0.092,80.000,8376.000,1.000
-5.306,-1.769,-4.457,-1.644,-5.436,-4.913,-6.641,-4.595,-0.084,1.003,-0.056,1.953,2.563,-0.061,80.000,8377.000,1.000
-8.194,-5.676,-7.959,-5.315,-7.862,-7.431,-8.382,-6.754,-0.084,1.005,-0.057,1.923,2.594,-0.092,80.000,8378.000,1.000
-11.000,-8.517,-11.261,-8.613,-10.717,-9.877,-10.219,-8.833,-0.081,1.005,-0.056,1.862,2.625,0.000,80.000,8379.000,1.000
-13.145,-9.605,-13.620,-10.753,-13.495,-11.752,-11.909,-10.588,-0.082,1.006,-0.056,1.801,2.594,-0.061,80.000,8380.000,1.000
-14.201,-9.979,-14.660,-11.950,-15.472,-13.069,-13.588,-12.578,-0.081,1.005,-0.059,1.556,2.533,-0.031,80.000,8381.000,1.000
-13.953,-10.363,-14.329,-12.469,-16.142,-13.753,-15.028,-14.694,-0.083,1.005,-0.059,1.587,2.625,0.061,80.000,8382.000,1.000
-12.577,-9.925,-12.866,-11.982,-15.541,-13.397,-15.486,-15.679,-0.080,1.004,-0.056,1.556,2.625,0.000,80.000,8383.000,1.000
-10.605,-7.623,-10.782,-10.141,-14.120,-11.833,-14.544,-14.529,-0.081,1.004,-0.059,1.434,2.777,-0.061,80.000,8384.000,1.000
-8.508,-3.996,-8.535,-7.364,-12.134,-9.469,-12.583,-11.780,-0.082,1.002,-0.058,1.404,2.838,-0.092,80.000,8385.000,1.000
-6.408,-0.788,-6.223,-4.636,-9.408,-6.840,-10.269,-8.884,-0.082,1.003,-0.057,1.373,2.869,-0.214,80.000,8386.000,1.000
-4.368,0.881,-3.955,-2.700,-6.098,-4.343,-8.076,-6.722,-0.082,1.003,-0.054,1.312,2.930,-0.122,80.000,8387.000,1.000
-2.823,1.339,-2.375,-1.716,-3.320,-2.477,-6.356,-5.142,-0.082,1.002,-0.056,1.190,2.991,-0.214,80.000,8388.000,1.000
-2.379,1.473,-2.191,-1.476,-2.229,-1.694,-5.294,-3.704,-0.081,1.000,-0.058,1.099,2.991,-0.275,80.000,8389.000,1.000
-3.081,1.518,-3.136,-1.691,-2.576,-1.868,-4.684,-2.466,-0.081,1.000,-0.061,1.007,3.021,-0.305,80.000,8390.000,1.000
-4.136,1.080,-3.919,-2.056,-2.826,-2.252,-4.005,-1.856,-0.081,0.998,-0.057,0.977,3.143,-0.366,80.000,8391.000,1.000
-4.572,0.204,-3.417,-2.213,-1.822,-2.103,-2.827,-1.921,-0.081,0.999,-0.055,1.007,3.204,-0.549,80.000,8392.000,1.000
-4.130,-0.214,-1.761,-1.893,-0.011,-1.355,-1.224,-2.122,-0.078,1.001,-0.056,1.038,3.296,-0.580,80.000,8393.000,1.000
-3.387,0.496,-0.086,-1.239,1.221,-0.676,0.166,-2.082,-0.079,1.000,-0.057,0.977,3.296,-0.641,80.000,8394.000,1.000
-3.054,1.679,0.722,-0.866,1.168,-0.847,0.537,-2.244,-0.081,0.999,-0.057,1.068,3.296,-0.549,80.000,8395.000,1.000
-3.230,1.945,0.793,-1.312,0.411,-2.078,-0.482,-3.385,-0.079,0.998,-0.056,0.977,3.296,-0.549,80.000,8396.000,1.000
-3.421,0.922,0.866,-2.332,-0.051,-3.765,-2.380,-5.417,-0.083,0.998,-0.056,0.946,3.387,-0.519,80.000,8397.000,1.000
-3.183,-0.117,1.379,-2.933,0.146,-4.911,-4.011,-7.127,-0.082,0.999,-0.056,1.007,3.418,-0.549,80.000,8398.000,1.000
-2.640,0.133,2.131,-2.339,0.646,-5.029,-4.590,-7.451,-0.082,0.999,-0.056,1.038,3.357,-0.488,80.000,8399.000,1.000
-2.335,1.194,2.708,-0.913,1.053,-4.567,-4.386,-6.754,-0.083,1.000,-0.057,1.160,3.326,-0.458,80.000,8400.000,1.000
-2.686,1.343,2.980,0.174,1.430,-4.226,-4.150,-6.299,-0.083,0.999,-0.056,1.160,3.418,-0.549,80.000,8401.000,1.000
-3.690,-0.044,3.118,0.207,2.041,-3.980,-4.033,-6.507,-0.083,1.000,-0.056,1.221,3.387,-0.610,80.000,8402.000,1.000
-5.148,-1.586,3.146,-0.469,2.738,-3.190,-3.516,-6.449,-0.084,0.999,-0.054,1.190,3.418,-0.580,80.000,8403.000,1.000
-6.988,-1.795,2.670,-1.230,2.862,-1.696,-2.430,-5.315,-0.084,0.998,-0.055,1.190,3.357,-0.549,80.000,8404.000,1.000
-9.121,-1.091,1.352,-2.059,2.010,-0.273,-1.469,-3.709,-0.083,1.000,-0.056,1.099,3.265,-0.488,80.000,8405.000,1.000
-11.084,-1.135,-0.462,-3.316,0.629,0.222,-1.413,-2.944,-0.084,1.001,-0.055,1.221,3.235,-0.580,80.000,8406.000,1.000
-12.198,-2.576,-1.945,-4.916,-0.530,-0.234,-2.192,-3.420,-0.087,0.998,-0.054,1.129,3.296,-0.519,80.000,8407.000,1.000
-12.177,-4.277,-2.646,-6.207,-1.350,-1.061,-3.038,-4.263,-0.086,0.999,-0.055,1.221,3.204,-0.488,80.000,8408.000,1.000
-11.340,-4.860,-2.823,-6.669,-2.268,-1.890,-3.427,-4.572,-0.087,0.996,-0.055,1.160,3.204,-0.549,80.000,8409.000,1.000
-10.146,-4.408,-2.839,-6.417,-3.313,-2.735,-3.502,-4.470,-0.086,0.998,-0.055,1.221,3.143,-0.580,80.000,8410.000,1.000
-8.729,-4.044,-2.516,-5.846,-3.700,-3.419,-3.511,-4.596,-0.087,0.997,-0.054,1.221,3.113,-0.519,80.000,8411.000,1.000
-6.916,-4.010,-1.278,-4.888,-2.576,-3.201,-3.097,-4.806,-0.087,0.998,-0.055,1.190,2.991,-0.427,80.000,8412.000,1.000
-4.659,-2.999,1.105,-2.980,0.030,-1.228,-1.486,-3.995,-0.087,0.998,-0.057,1.221,2.899,-0.519,80.000,8413.000,1.000
-2.455,-0.012,3.952,-0.058,3.034,2.444,1.428,-1.566,-0.087,0.999,-0.056,1.312,2.808,-0.366,80.000,8414.000,1.000
-1.209,3.627,5.950,2.624,4.998,6.331,4.401,1.265,-0.086,1.000,-0.057,1.251,2.747,-0.427,80.000,8415.000,1.000
-1.473,5.122,6.104,3.244,5.016,8.388,5.591,2.337,-0.086,1.000,-0.056,1.221,2.625,-0.427,80.000,8416.000,1.000
-2.935,3.200,4.440,1.163,3.110,7.601,4.157,0.819,-0.085,1.002,-0.054,1.251,2.686,-0.366,80.000,8417.000,1.000
-4.767,-0.457,1.806,-2.375,0.008,4.699,0.993,-1.876,-0.084,1.004,-0.056,1.190,2.594,-0.305,80.000,8418.000,1.000
-6.234,-3.115,-0.800,-5.406,-3.198,1.359,-2.099,-3.653,-0.083,1.003,-0.056,1.129,2.686,-0.275,80.000,8419.000,1.000
-6.764,-3.675,-2.512,-6.772,-5.223,-0.995,-3.738,-3.718,-0.082,1.003,-0.054,1.099,2.533,-0.153,80.000,8420.000,1.000
-5.857,-2.982,-2.651,-6.493,-5.045,-1.722,-3.524,-2.777,-0.082,1.001,-0.055,1.038,2.563,-0.153,80.000,8421.000,1.000
-3.521,-2.139,-1.197,-5.252,-2.843,-0.997,-1.931,-1.865,-0.084,1.001,-0.055,1.038,2.533,-0.244,80.000,8422.000,1.000
-0.759,-1.383,0.755,-3.903,-0.336,0.284,-0.088,-1.563,-0.085,1.001,-0.057,1.007,2.625,-0.153,80.000,8423.000,1.000
0.909,-0.598,1.665,-3.203,0.522,0.975,0.710,-2.096,-0.085,1.000,-0.052,1.038,2.533,-0.183,80.000,8424.000,1.000
0.725,-0.146,0.969,-3.537,-0.590,0.519,-0.159,-3.580,-0.088,1.002,-0.053,1.099,2.594,-0.214,80.000,8425.000,1.000
-0.457,-0.441,-0.292,-4.571,-2.106,-0.517,-2.082,-5.776,-0.088,1.002,-0.055,1.038,2.472,-0.305,80.000,8426.000,1.000
-0.820,-0.823,-0.409,-5.260,-2.188,-0.808,-3.497,-7.657,-0.085,1.002,-0.054,1.068,2.472,-0.305,80.000,8427.000,1.000
0.743,0.333,1.468,-4.523,-0.333,0.680,-2.962,-7.752,-0.086,1.001,-0.053,1.007,2.441,-0.183,80.000,8428.000,1.000
3.656,3.833,4.711,-2.210,2.562,3.764,-0.285,-5.422,-0.084,0.998,-0.054,1.007,2.380,-0.153,80.000,8429.000,1.000
6.296,8.229,7.862,0.589,5.294,7.065,3.224,-1.754,-0.084,0.998,-0.056,1.190,2.350,-0.214,80.000,8430.000,1.000
7.380,10.849,9.758,2.406,7.227,9.124,5.825,1.314,-0.083,1.001,-0.056,1.129,2.411,-0.397,80.000,8431.000,1.000
6.566,10.353,10.017,2.592,8.174,9.524,6.721,2.776,-0.083,1.001,-0.055,1.160,2.411,-0.549,80.000,8432.000,1.000
4.103,7.761,8.658,1.512,7.795,8.794,6.248,3.049,-0.083,1.002,-0.058,1.038,2.441,-0.397,80.000,8433.000,1.000
0.493,4.950,5.837,-0.211,5.799,7.642,5.108,2.845,-0.084,0.999,-0.060,1.160,2.502,-0.519,80.000,8434.000,1.000
-3.518,2.705,2.154,-2.318,2.798,6.563,3.813,2.165,-0.082,0.998,-0.057,1.160,2.472,-0.519,80.000,8435.000,1.000
-7.172,0.496,-1.394,-4.876,0.179,5.815,2.613,0.558,-0.084,0.998,-0.055,1.251,2.563,-0.580,80.000,8436.000,1.000
-10.053,-2.131,-4.154,-7.793,-1.191,5.469,1.625,-1.899,-0.083,0.998,-0.056,1.312,2.625,-0.549,80.000,8437.000,1.000
-12.219,-4.576,-6.334,-10.514,-1.751,5.413,0.918,-4.280,-0.084,0.998,-0.057,1.343,2.655,-0.580,80.000,8438.000,1.000
-14.101,-6.067,-8.631,-12.439,-2.599,5.194,0.317,-5.767,-0.082,0.999,-0.055,1.312,2.686,-0.549,80.000,8439.000,1.000
-16.073,-7.034,-11.337,-13.564,-4.236,4.052,-0.754,-6.689,-0.083,1.000,-0.056,1.343,2.747,-0.580,80.000,8440.000,1.000
-17.767,-8.516,-13.691,-14.186,-5.915,1.736,-2.598,-7.898,-0.085,1.000,-0.057,1.495,2.838,-0.610,80.000,8441.000,1.000
-17.939,-10.094,-14.117,-13.910,-6.152,-0.644,-4.287,-9.020,-0.085,1.000,-0.056,1.495,2.899,-0.549,80.000,8442.000,1.000
-15.592,-9.678,-11.553,-11.684,-4.097,-1.308,-4.132,-8.297,-0.085,1.001,-0.055,1.465,2.930,-0.580,80.000,8443.000,1.000
-11.309,-6.143,-6.765,-7.318,-0.501,0.261,-1.601,-4.788,-0.083,1.000,-0.055,1.556,2.899,-0.610,80.000,8444.000,1.000
-6.911,-1.269,-1.849,-2.304,2.956,2.639,1.827,0.053,-0.086,1.003,-0.054,1.587,2.930,-0.610,80.000,8445.000,1.000
-3.761,1.938,1.664,1.427,5.241,4.054,4.175,3.701,-0.086,1.000,-0.056,1.587,2.838,-0.671,80.000,8446.000,1.000
-1.970,2.320,3.636,3.144,6.371,4.057,4.812,4.953,-0.085,1.000,-0.056,1.495,2.899,-0.641,80.000,8447.000,1.000
-1.127,1.276,4.460,3.435,6.534,3.366,4.512,4.561,-0.084,0.999,-0.057,1.587,2.899,-0.549,80.000,8448.000,1.000
-1.043,0.786,4.359,3.135,5.768,2.767,4.259,3.904,-0.085,1.000,-0.056,1.495,2.991,-0.488,80.000,8449.000,1.000
-1.645,1.425,3.709,2.524,4.588,2.612,4.489,3.588,-0.086,1.001,-0.057,1.556,2.899,-0.549,80.000,8450.000,1.000
-2.582,2.419,3.271,1.473,4.060,3.057,5.209,3.396,-0.085,1.001,-0.057,1.617,2.869,-0.580,80.000,8451.000,1.000
-3.276,3.171,3.593,0.122,4.791,4.203,6.335,3.221,-0.087,1.004,-0.053,1.587,3.052,-0.580,80.000,8452.000,1.000
-3.396,4.042,4.380,-0.881,6.159,5.894,7.718,3.530,-0.088,1.004,-0.054,1.556,2.960,-0.488,80.000,8453.000,1.000
-3.098,5.494,4.893,-0.886,7.036,7.615,9.076,4.763,-0.086,1.002,-0.054,1.526,2.960,-0.488,80.000,8454.000,1.000
-2.659,7.039,4.957,0.146,7.187,8.897,10.161,6.609,-0.085,1.004,-0.054,1.434,2.960,-0.427,80.000,8455.000,1.000
-2.019,7.596,5.190,1.632,7.429,9.727,10.980,8.222,-0.086,1.004,-0.056,1.434,2.869,-0.427,80.000,8456.000,1.000
-0.883,6.929,6.195,3.009,8.418,10.409,11.772,9.191,-0.086,1.001,-0.057,1.343,2.838,-0.397,80.000,8457.000,1.000
0.808,6.255,7.833,4.310,9.840,11.176,12.815,10.062,-0.085,1.000,-0.057,1.282,2.777,-0.488,80.000,8458.000,1.000
2.641,6.870,9.373,5.888,10.899,11.929,14.079,11.517,-0.086,0.999,-0.056,1.373,2.777,-0.519,80.000,8459.000,1.000
4.047,8.388,10.209,7.657,11.235,12.204,14.990,13.191,-0.085,0.998,-0.059,1.404,2.930,-0.458,80.000,8460.000,1.000
4.843,9.151,10.406,9.012,11.211,11.558,14.817,13.884,-0.086,0.997,-0.054,1.434,2.869,-0.305,80.000,8461.000,1.000
5.328,8.385,10.460,9.498,11.260,10.104,13.436,12.980,-0.087,0.996,-0.056,1.434,2.838,-0.305,80.000,8462.000,1.000
5.792,7.067,10.511,9.233,11.110,8.380,11.372,11.057,-0.086,0.999,-0.054,1.556,2.777,-0.244,80.000,8463.000,1.000
6.069,6.432,10.103,8.598,10.055,6.736,9.131,8.956,-0.085,0.998,-0.057,1.526,2.808,-0.214,80.000,8464.000,1.000
5.827,6.398,8.976,7.815,8.124,5.239,6.909,6.857,-0.084,1.000,-0.060,1.526,2.838,-0.214,80.000,8465.000,1.000
5.307,6.078,7.770,7.019,6.489,4.173,5.036,4.665,-0.083,1.000,-0.058,1.556,2.838,-0.183,80.000,8466.000,1.000
5.397,5.378,7.488,6.561,6.323,4.069,4.148,2.926,-0.083,0.998,-0.061,1.556,2.808,-0.214,80.000,8467.000,1.000
6.637,5.210,8.183,6.757,7.325,4.898,4.490,2.603,-0.083,0.998,-0.061,1.587,2.808,-0.244,80.000,8468.000,1.000
8.358,5.948,8.592,7.252,7.856,5.589,5.277,3.817,-0.085,0.999,-0.059,1.526,2.686,-0.244,80.000,8469.000,1.000
9.192,6.381,7.359,6.996,6.607,4.784,5.190,5.297,-0.086,0.994,-0.058,1.678,2.838,-0.214,80.000,8470.000,1.000
8.387,4.795,4.389,5.159,3.752,2.014,3.539,5.455,-0.088,0.997,-0.058,1.648,2.747,-0.153,80.000,8471.000,1.000
6.453,1.089,0.825,2.124,0.422,-1.893,0.907,4.008,-0.085,0.999,-0.059,1.678,2.777,-0.214,80.000,8472.000,1.000
4.543,-2.762,-2.097,-0.640,-2.493,-5.493,-1.428,2.249,-0.085,1.002,-0.059,1.587,2.777,-0.427,80.000,8473.000,1.000
3.400,-4.691,-3.910,-1.874,-4.724,-7.810,-2.682,1.512,-0.083,1.004,-0.058,1.587,2.716,-0.305,80.000,8474.000,1.000
3.089,-4.578,-4.703,-1.543,-6.023,-8.726,-3.014,1.781,-0.083,1.006,-0.061,1.556,2.686,-0.275,80.000,8475.000,1.000
3.388,-3.976,-4.585,-0.549,-5.885,-8.557,-2.943,2.100,-0.083,1.006,-0.061,1.495,2.808,-0.275,80.000,8476.000,1.000
4.074,-4.140,-3.829,0.238,-4.343,-7.676,-2.790,1.870,-0.084,1.003,-0.061,1.404,2.899,-0.214,80.000,8477.000,1.000
4.909,-4.803,-3.183,0.502,-2.585,-6.479,-2.704,1.347,-0.084,1.002,-0.059,1.312,2.899,-0.244,80.000,8478.000,1.000
5.653,-4.942,-3.375,0.366,-2.009,-5.317,-2.780,1.050,-0.083,1.002,-0.060,1.160,2.838,-0.183,80.000,8479.000,1.000
6.285,-4.270,-4.187,0.084,-2.672,-4.289,-2.963,1.042,-0.083,1.002,-0.060,1.221,2.899,-0.153,80.000,8480.000,1.000
7.137,-3.447,-4.466,-0.130,-3.243,-3.208,-3.001,0.958,-0.081,1.004,-0.062,1.099,2.899,-0.244,80.000,8481.000,1.000
8.540,-2.928,-3.302,-0.097,-2.657,-1.910,-2.656,0.675,-0.083,1.003,-0.060,0.854,2.991,-0.305,80.000,8482.000,1.000
10.306,-2.248,-1.068,0.317,-1.356,-0.579,-1.986,0.657,-0.084,1.002,-0.056,0.885,2.991,-0.336,80.000,8483.000,1.000
11.844,-0.833,0.953,1.057,-0.590,0.346,-1.375,1.357,-0.086,1.002,-0.058,0.824,2.930,-0.336,80.000,8484.000,1.000
12.846,0.890,1.935,1.793,-0.817,0.672,-1.222,2.454,-0.087,1.004,-0.057,0.610,2.960,-0.366,80.000,8485.000,1.000
13.697,1.939,2.353,2.288,-1.092,0.939,-1.373,3.248,-0.085,1.004,-0.055,0.610,2.960,-0.305,80.000,8486.000,1.000
15.153,2.480,3.508,2.995,0.067,2.390,-0.781,3.944,-0.084,1.004,-0.055,0.671,2.991,-0.305,80.000,8487.000,1.000
17.636,4.259,6.272,4.964,3.345,6.121,1.913,5.894,-0.084,1.003,-0.058,0.580,2.991,-0.244,80.000,8488.000,1.000
20.771,8.624,10.302,8.758,8.135,11.935,7.100,10.058,-0.086,1.004,-0.057,0.580,3.082,-0.305,80.000,8489.000,1.000
23.551,14.342,14.306,13.442,13.051,18.013,13.452,15.435,-0.087,1.003,-0.056,0.519,3.113,-0.458,80.000,8490.000,1.000
24.920,18.104,16.844,16.947,16.643,21.882,18.605,19.518,-0.086,1.003,-0.055,0.458,3.082,-0.427,80.000,8491.000,1.000
24.238,17.414,16.922,17.606,17.735,21.870,20.689,20.437,-0.086,1.001,-0.054,0.397,3.021,-0.336,80.000,8492.000,1.000
21.274,12.515,14.032,15.108,15.410,17.712,19.100,18.170,-0.088,1.002,-0.057,0.458,3.113,-0.397,80.000,8493.000,1.000
16.122,5.323,8.105,10.000,9.332,10.158,14.115,13.644,-0.088,1.001,-0.057,0.397,3.052,-0.305,80.000,8494.000,1.000
9.607,-2.402,0.168,3.192,0.838,0.877,6.794,7.759,-0.086,1.000,-0.056,0.580,3.052,-0.275,80.000,8495.000,1.000
3.565,-9.215,-7.176,-3.719,-6.770,-7.476,-0.657,1.760,-0.085,1.000,-0.054,0.549,2.991,-0.244,80.000,8496.000,1.000
0.071,-13.355,-11.039,-8.519,-10.228,-12.310,-5.534,-2.410,-0.086,1.000,-0.057,0.671,2.899,-0.214,80.000,8497.000,1.000
0.138,-13.137,-10.343,-9.462,-8.752,-12.600,-6.209,-2.993,-0.085,0.998,-0.057,0.702,3.021,-0.122,80.000,8498.000,1.000
3.215,-8.376,-6.346,-6.448,-4.139,-9.306,-3.084,0.159,-0.085,0.998,-0.054,0.671,2.991,-0.122,80.000,8499.000,1.000
7.906,-1.183,-1.255,-1.155,1.209,-4.448,1.851,5.161,-0.084,0.996,-0.053,0.824,2.930,-0.122,80.000,8500.000,1.000
13.112,5.362,3.471,4.202,6.025,0.343,6.537,9.490,-0.083,0.996,-0.055,0.885,2.930,-0.122,80.000,8501.000,1.000
18.363,9.648,7.508,8.420,10.180,4.623,10.117,11.977,-0.083,0.994,-0.055,1.038,2.899,-0.061,80.000,8502.000,1.000
23.137,12.281,10.771,11.555,13.546,8.567,12.773,13.189,-0.086,0.995,-0.055,1.251,2.869,-0.153,80.000,8503.000,1.000
26.437,14.350,12.738,13.916,15.519,11.941,14.672,14.009,-0.086,0.995,-0.054,1.282,2.869,-0.183,80.000,8504.000,1.000
27.457,15.657,12.960,15.342,15.826,14.066,15.574,14.418,-0.084,0.997,-0.055,1.373,2.930,-0.183,80.000,8505.000,1.000
26.394,15.136,11.782,15.479,15.129,14.589,15.321,13.868,-0.085,0.997,-0.056,1.434,2.777,-0.122,80.000,8506.000,1.000
24.346,12.738,10.145,14.471,14.348,13.922,14.278,12.458,-0.085,1.000,-0.056,1.465,2.716,-0.122,80.000,8507.000,1.000
22.541,10.224,8.883,13.224,13.762,12.909,13.177,11.322,-0.084,1.001,-0.056,1.404,2.747,-0.122,80.000,8508.000,1.000
21.574,9.564,8.333,12.778,13.128,12.118,12.538,11.593,-0.083,1.002,-0.056,1.556,2.686,-0.092,80.000,8509.000,1.000
21.206,10.713,8.363,13.288,12.316,11.406,12.179,13.032,-0.081,1.003,-0.056,1.465,2.655,-0.061,80.000,8510.000,1.000
20.836,11.604,8.514,13.821,11.384,10.151,11.349,14.039,-0.081,1.003,-0.056,1.495,2.747,-0.092,80.000,8511.000,1.000
20.040,10.505,8.221,13.347,10.168,7.966,9.496,13.263,-0.080,1.005,-0.060,1.465,2.777,0.000,80.000,8512.000,1.000
18.632,7.855,7.093,11.771,8.231,5.135,6.841,10.939,-0.082,1.003,-0.060,1.465,2.777,0.031,80.000,8513.000,1.000
16.520,5.307,5.048,9.715,5.292,2.200,3.953,8.233,-0.082,1.002,-0.059,1.526,2.869,0.092,80.000,8514.000,1.000
13.874,3.569,2.429,7.620,1.741,-0.592,1.086,5.702,-0.080,1.000,-0.056,1.434,2.991,0.183,80.000,8515.000,1.000
11.372,2.186,0.202,5.686,-1.152,-2.921,-1.462,3.277,-0.080,0.999,-0.060,1.465,3.021,0.061,80.000,8516.000,1.000
9.856,1.083,-0.487,4.422,-1.989,-3.909,-2.748,1.426,-0.080,1.000,-0.060,1.526,2.930,0.183,80.000,8517.000,1.000
9.489,1.046,0.501,4.404,-0.662,-2.857,-1.903,1.123,-0.081,0.999,-0.059,1.648,3.021,0.153,80.000,8518.000,1.000
9.495,2.375,1.887,5.410,1.361,-0.306,0.631,2.467,-0.080,0.997,-0.058,1.709,3.052,0.122,80.000,8519.000,1.000
8.956,3.904,2.247,6.353,2.585,2.308,3.312,4.162,-0.081,0.997,-0.061,1.801,3.052,0.092,80.000,8520.000,1.000
7.708,3.996,1.412,6.298,2.894,4.011,4.979,4.818,-0.084,0.996,-0.061,1.862,3.021,-0.031,80.000,8521.000,1.000
6.341,2.389,0.259,5.339,3.087,4.928,5.707,4.410,-0.085,0.997,-0.058,1.892,2.960,-0.122,80.000,8522.000,1.000
5.482,0.634,-0.465,4.440,3.536,5.727,6.259,4.154,-0.086,0.998,-0.059,1.892,2.960,-0.183,80.000,8523.000,1.000
5.374,0.529,-0.594,4.553,3.976,6.797,7.124,5.079,-0.085,1.000,-0.058,1.953,2.808,-0.397,80.000,8524.000,1.000
6.158,2.324,-0.021,5.929,4.425,7.968,8.169,6.952,-0.085,1.000,-0.060,1.953,2.777,-0.519,80.000,8525.000,1.000
8.067,4.688,1.569,8.083,5.474,8.746,8.906,8.577,-0.082,1.001,-0.057,1.953,2.686,-0.732,80.000,8526.000,1.000
11.010,6.334,4.190,10.290,7.346,8.665,8.930,9.022,-0.081,1.002,-0.059,1.953,2.655,-0.793,80.000,8527.000,1.000
14.206,7.270,7.100,12.058,9.197,7.494,8.164,8.380,-0.083,1.003,-0.061,1.831,2.625,-0.885,80.000,8528.000,1.000
16.466,8.132,9.177,13.159,9.797,5.286,6.792,7.305,-0.082,1.005,-0.059,1.770,2.716,-0.916,80.000,8529.000,1.000
16.945,8.714,9.842,13.399,8.819,2.367,5.079,6.074,-0.080,1.008,-0.063,1.740,2.686,-0.824,80.000,8530.000,1.000
15.733,7.978,9.453,12.619,7.084,-0.721,3.334,4.508,-0.080,1.009,-0.063,1.526,2.716,-0.885,80.000,8531.000,1.000
13.719,5.655,8.749,10.981,5.560,-3.275,1.995,2.792,-0.079,1.009,-0.062,1.404,2.655,-0.854,80.000,8532.000,1.000
11.778,3.158,8.108,9.127,4.457,-4.601,1.578,1.913,-0.079,1.009,-0.062,1.221,2.777,-0.793,80.000,8533.000,1.000
10.152,2.242,7.421,7.750,3.426,-4.497,2.260,2.777,-0.080,1.008,-0.063,1.007,2.686,-0.824,80.000,8534.000,1.000
8.648,2.985,6.502,6.908,2.336,-3.535,3.538,4.899,-0.079,1.005,-0.061,0.854,2.808,-0.763,80.000,8535.000,1.000
7.239,3.819,5.478,6.009,1.576,-2.529,4.562,6.565,-0.081,1.007,-0.061,0.732,2.869,-0.793,80.000,8536.000,1.000
6.224,3.574,4.720,4.644,1.514,-1.863,4.790,6.486,-0.081,1.006,-0.061,0.702,2.960,-0.824,80.000,8537.000,1.000
5.836,2.765,4.403,3.162,1.826,-1.593,4.158,4.927,-0.081,1.007,-0.060,0.427,3.021,-0.824,80.000,8538.000,1.000
6.014,2.613,4.418,2.323,1.818,-1.779,2.874,3.066,-0.083,1.004,-0.053,0.458,3.143,-0.793,80.000,8539.000,1.000
6.668,3.423,4.861,2.558,1.494,-2.318,1.307,1.706,-0.085,1.004,-0.056,0.366,3.143,-0.732,80.000,8540.000,1.000
7.904,4.465,6.199,3.704,1.771,-2.695,0.016,0.922,-0.085,1.003,-0.058,0.427,3.113,-0.671,80.000,8541.000,1.000
9.790,5.267,8.631,5.333,3.379,-2.192,-0.342,0.739,-0.087,0.999,-0.058,0.336,2.991,-0.732,80.000,8542.000,1.000
11.922,6.376,11.461,7.128,5.874,-0.401,0.673,1.598,-0.088,0.999,-0.055,0.305,2.716,-0.763,80.000,8543.000,1.000
13.384,8.400,13.420,8.860,8.038,2.374,2.857,3.773,-0.088,0.997,-0.059,0.397,2.808,-0.702,80.000,8544.000,1.000
13.373,10.687,13.755,10.164,9.144,5.185,5.329,6.564,-0.088,0.994,-0.060,0.458,2.716,-0.610,80.000,8545.000,1.000
11.908,11.679,12.857,10.595,9.487,7.009,7.085,8.607,-0.087,0.991,-0.057,0.580,2.625,-0.580,80.000,8546.000,1.000
9.925,10.791,11.771,10.092,9.662,7.454,7.700,9.112,-0.089,0.990,-0.054,0.671,2.502,-0.610,80.000,8547.000,1.000
8.745,9.428,11.306,9.289,9.758,7.027,7.541,8.607,-0.089,0.990,-0.056,0.702,2.533,-0.641,80.000,8548.000,1.000
9.323,9.676,11.762,9.157,9.633,6.698,7.328,8.250,-0.089,0.993,-0.057,0.854,2.411,-0.702,80.000,8549.000,1.000
11.804,12.183,13.324,10.268,9.737,7.219,7.567,8.618,-0.088,0.993,-0.057,0.885,2.258,-0.793,80.000,8550.000,1.000
15.630,15.804,16.264,12.514,11.080,8.814,8.386,9.432,-0.086,0.995,-0.056,1.099,2.411,-0.702,80.000,8551.000,1.000
19.837,19.163,20.408,15.397,14.085,11.245,9.692,10.297,-0.086,0.997,-0.055,1.068,2.289,-0.732,80.000,8552.000,1.000
23.165,21.783,24.499,18.268,17.608,13.771,11.126,11.129,-0.084,0.998,-0.054,1.160,2.319,-0.977,80.000,8553.000,1.000
24.310,23.457,26.624,20.282,19.528,15.089,11.849,11.679,-0.084,1.001,-0.055,1.190,2.258,-0.946,80.000,8554.000,1.000
22.682,23.338,25.638,20.531,18.537,13.940,10.819,11.167,-0.085,1.002,-0.053,1.190,2.228,-0.732,80.000,8555.000,1.000
19.007,20.568,22.123,18.620,15.215,10.221,7.698,8.986,-0.084,1.002,-0.056,1.190,2.319,-0.671,80.000,8556.000,1.000
14.855,15.737,17.785,15.147,11.248,5.404,3.454,5.758,-0.082,1.003,-0.056,1.160,2.380,-0.549,80.000,8557.000,1.000
11.407,10.969,13.991,11.451,7.814,1.473,-0.302,3.157,-0.081,1.003,-0.055,1.160,2.380,-0.458,80.000,8558.000,1.000
8.773,8.109,11.031,8.729,4.982,-0.624,-2.628,2.389,-0.079,1.002,-0.053,1.160,2.502,-0.427,80.000,8559.000,1.000
6.514,7.123,8.733,7.344,2.570,-1.287,-3.705,3.089,-0.081,1.002,-0.055,1.068,2.686,-0.488,80.000,8560.000,1.000
4.486,6.609,7.240,6.873,0.922,-1.295,-4.130,3.880,-0.081,1.001,-0.054,1.160,2.747,-0.397,80.000,8561.000,1.000
2.988,5.661,6.809,6.707,0.413,-0.968,-4.178,3.830,-0.082,1.000,-0.055,1.251,2.838,-0.366,80.000,8562.000,1.000
2.234,4.753,7.083,6.543,0.574,-0.312,-3.836,3.147,-0.082,1.000,-0.054,1.221,2.899,-0.305,80.000,8563.000,1.000
1.920,4.568,6.967,6.204,0.262,0.369,-3.327,2.406,-0.085,1.000,-0.056,1.373,2.777,-0.336,80.000,8564.000,1.000
1.379,4.429,5.456,5.242,-1.243,0.360,-3.304,1.459,-0.086,1.000,-0.054,1.343,2.777,-0.244,80.000,8565.000,1.000
0.217,2.794,2.635,3.232,-3.489,-0.775,-4.229,-0.329,-0.085,1.001,-0.054,1.282,2.747,-0.244,80.000,8566.000,1.000
-1.305,-0.557,-0.276,0.514,-5.317,-2.516,-5.640,-2.766,-0.084,0.999,-0.057,1.343,2.838,-0.366,80.000,8567.000,1.000
-2.689,-3.716,-2.064,-1.811,-6.026,-3.769,-6.457,-4.513,-0.086,1.000,-0.057,1.343,2.838,-0.458,80.000,8568.000,1.000
-3.818,-4.617,-2.553,-2.946,-5.916,-3.962,-6.158,-4.503,-0.086,1.001,-0.060,1.434,2.716,-0.519,80.000,8569.000,1.000
-4.865,-3.244,-2.298,-3.145,-5.496,-3.362,-5.167,-3.162,-0.084,1.003,-0.060,1.465,2.808,-0.519,80.000,8570.000,1.000
-5.817,-1.319,-1.601,-3.163,-4.559,-2.308,-4.000,-1.746,-0.083,1.001,-0.058,1.495,2.899,-0.580,80.000,8571.000,1.000
-6.516,-0.198,-0.427,-3.265,-2.624,-0.718,-2.542,-0.805,-0.084,1.000,-0.057,1.434,2.899,-0.610,80.000,8572.000,1.000
-7.062,0.289,0.919,-3.073,-0.074,1.418,-0.469,0.197,-0.081,1.000,-0.060,1.526,2.960,-0.671,80.000,8573.000,1.000
-7.723,0.915,1.706,-2.231,1.862,3.449,1.870,1.758,-0.084,0.998,-0.058,1.526,3.021,-0.519,80.000,8574.000,1.000
-8.423,1.628,1.594,-0.966,2.406,4.390,3.396,3.315,-0.085,0.998,-0.059,1.495,2.991,-0.488,80.000,8575.000,1.000
-8.644,1.598,1.148,0.093,2.033,3.836,3.250,3.702,-0.086,0.998,-0.057,1.648,2.960,-0.549,80.000,8576.000,1.000
-8.029,0.526,1.174,0.535,1.648,2.300,1.533,2.454,-0.086,0.999,-0.057,1.617,2.991,-0.397,80.000,8577.000,1.000
-6.907,-0.680,1.733,0.522,1.364,0.623,-0.977,0.292,-0.086,0.997,-0.056,1.770,3.113,-0.336,80.000,8578.000,1.000
-6.015,-0.852,2.200,0.524,0.629,-0.689,-3.588,-1.741,-0.086,1.000,-0.057,1.862,3.174,-0.305,80.000,8579.000,1.000
-5.762,0.035,2.176,0.729,-0.678,-1.555,-6.043,-3.387,-0.087,1.001,-0.056,1.801,3.082,-0.488,80.000,8580.000,1.000
-5.834,0.882,1.964,0.870,-1.877,-1.992,-8.308,-5.176,-0.088,1.000,-0.059,1.862,3.052,-0.458,80.000,8581.000,1.000
-5.581,1.005,2.114,0.694,-2.307,-1.863,-10.161,-7.360,-0.086,1.002,-0.059,1.831,3.113,-0.397,80.000,8582.000,1.000
-4.836,1.045,2.662,0.338,-2.140,-1.018,-11.130,-9.239,-0.087,1.001,-0.062,1.801,3.113,-0.366,80.000,8583.000,1.000
-4.255,1.791,2.926,-0.012,-2.174,0.277,-10.950,-9.886,-0.087,1.001,-0.060,1.801,3.204,-0.366,80.000,8584.000,1.000
-4.717,2.562,2.122,-0.637,-2.880,1.227,-9.935,-9.315,-0.085,1.000,-0.058,1.862,3.143,-0.275,80.000,8585.000,1.000
-6.464,1.656,0.153,-2.070,-3.893,1.127,-8.683,-8.437,-0.084,1.000,-0.060,1.740,3.235,-0.244,80.000,8586.000,1.000
-8.907,-1.495,-2.318,-4.312,-4.546,0.114,-7.415,-7.798,-0.085,1.000,-0.061,1.892,3.235,-0.031,80.000,8587.000,1.000
-11.199,-5.277,-4.551,-6.546,-4.663,-0.858,-5.778,-6.858,-0.083,1.000,-0.060,1.892,3.418,0.153,80.000,8588.000,1.000
-12.960,-7.585,-6.377,-7.956,-4.689,-0.973,-3.528,-4.964,-0.083,1.000,-0.062,1.923,3.326,0.244,80.000,8589.000,1.000
-14.433,-8.260,-8.164,-8.704,-5.164,-0.446,-1.314,-2.760,-0.084,1.002,-0.057,1.892,3.448,0.427,80.000,8590.000,1.000
-15.886,-9.018,-10.172,-9.656,-6.148,-0.179,-0.285,-1.890,-0.083,1.003,-0.057,1.953,3.326,0.549,80.000,8591.000,1.000
-17.025,-10.909,-12.078,-11.113,-7.204,-0.585,-0.834,-3.155,-0.084,1.002,-0.059,1.740,3.326,0.580,80.000,8592.000,1.000
-17.343,-12.782,-13.279,-12.268,-7.963,-1.149,-2.155,-5.503,-0.085,1.001,-0.060,1.709,3.296,0.580,80.000,8593.000,1.000
-16.866,-12.838,-13.545,-12.150,-8.507,-1.251,-3.210,-7.177,-0.086,1.000,-0.061,1.740,3.296,0.519,80.000,8594.000,1.000
-16.154,-11.078,-13.179,-10.873,-9.064,-1.011,-3.798,-7.579,-0.087,0.998,-0.062,1.801,3.296,0.580,80.000,8595.000,1.000
-15.617,-9.327,-12.587,-9.602,-9.536,-0.975,-4.378,-7.541,-0.086,0.994,-0.061,1.892,3.387,0.641,80.000,8596.000,1.000
-15.134,-8.844,-11.839,-9.205,-9.512,-1.124,-5.007,-7.774,-0.086,0.994,-0.062,1.801,3.357,0.488,80.000,8597.000,1.000
-14.422,-8.842,-10.801,-9.313,-8.797,-0.784,-5.048,-7.760,-0.087,0.995,-0.063,1.953,3.296,0.458,80.000,8598.000,1.000
-13.663,-7.973,-9.722,-9.072,-7.830,0.286,-4.140,-6.724,-0.086,0.997,-0.064,2.014,3.204,0.305,80.000,8599.000,1.000
-13.425,-6.494,-9.178,-8.349,-7.264,1.348,-2.905,-5.073,-0.084,0.998,-0.064,2.014,3.235,0.214,80.000,8600.000,1.000
-13.886,-5.940,-9.254,-7.657,-7.124,1.573,-2.268,-4.045,-0.083,0.998,-0.064,1.862,3.204,0.092,80.000,8601.000,1.000
-14.427,-6.926,-9.297,-7.212,-6.882,0.946,-2.504,-4.194,-0.083,0.999,-0.065,1.770,3.235,0.000,80.000,8602.000,1.000
-14.214,-8.174,-8.712,-6.588,-6.345,-0.011,-3.246,-4.817,-0.082,1.000,-0.065,1.862,3.143,-0.092,80.000,8603.000,1.000
-13.083,-8.035,-7.593,-5.381,-5.954,-1.060,-4.199,-4.998,-0.082,1.002,-0.063,1.862,3.021,-0.061,80.000,8604.000,1.000
-11.604,-6.509,-6.417,-3.943,-6.082,-2.481,-5.516,-4.843,-0.080,1.003,-0.064,1.709,3.082,0.061,80.000,8605.000,1.000
-10.272,-4.996,-5.256,-2.998,-6.308,-4.335,-7.217,-5.150,-0.080,1.004,-0.066,1.587,3.052,0.061,80.000,8606.000,1.000
-8.959,-4.182,-3.622,-2.588,-5.712,-5.799,-8.542,-6.002,-0.080,1.005,-0.063,1.556,3.021,0.122,80.000,8607.000,1.000
-7.352,-3.197,-1.324,-1.978,-4.058,-5.845,-8.547,-6.486,-0.081,1.006,-0.064,1.434,3.052,0.061,80.000,8608.000,1.000
-5.678,-1.249,0.819,-0.819,-2.331,-4.564,-7.376,-6.061,-0.081,1.008,-0.064,1.343,3.052,-0.061,80.000,8609.000,1.000
-4.604,0.762,1.653,0.139,-1.693,-3.255,-6.366,-5.562,-0.082,1.006,-0.063,1.160,3.143,-0.061,80.000,8610.000,1.000
-4.457,1.021,0.948,-0.097,-2.191,-3.090,-6.738,-6.291,-0.080,1.007,-0.063,0.916,3.174,0.031,80.000,8611.000,1.000
-4.848,-1.044,-0.492,-1.535,-3.002,-4.110,-8.434,-8.368,-0.079,1.006,-0.067,0.671,3.235,0.031,80.000,8612.000,1.000
-5.172,-3.939,-1.837,-3.110,-3.669,-5.462,-10.249,-10.370,-0.080,1.005,-0.064,0.610,3.174,0.000,80.000,8613.000,1.000
-5.224,-5.677,-2.903,-3.769,-4.467,-6.288,-10.919,-10.683,-0.081,1.005,-0.064,0.488,3.296,-0.092,80.000,8614.000,1.000
-5.323,-6.019,-3.959,-3.559,-5.745,-6.470,-10.199,-9.228,-0.081,1.005,-0.061,0.305,3.204,-0.092,80.000,8615.000,1.000
-5.961,-6.691,-5.326,-3.613,-7.491,-6.757,-9.054,-7.615,-0.082,1.004,-0.062,0.214,3.235,-0.153,80.000,8616.000,1.000
-7.310,-9.125,-7.136,-4.889,-9.524,-7.968,-8.655,-7.366,-0.081,1.002,-0.062,0.275,3.235,-0.275,80.000,8617.000,1.000
-9.111,-12.516,-9.273,-7.105,-11.729,-10.015,-9.246,-8.277,-0.081,1.001,-0.063,0.183,3.174,-0.305,80.000,8618.000,1.000
-10.938,-14.708,-11.364,-9.078,-13.854,-11.912,-10.087,-8.897,-0.083,0.999,-0.063,0.122,3.204,-0.336,80.000,8619.000,1.000
-12.374,-14.612,-12.776,-9.913,-15.144,-12.670,-10.287,-8.243,-0.084,0.997,-0.061,0.153,3.296,-0.336,80.000,8620.000,1.000
-13.045,-13.048,-12.896,-9.668,-14.636,-11.947,-9.449,-6.579,-0.085,0.998,-0.060,0.214,3.265,-0.427,80.000,8621.000,1.000
-12.716,-11.211,-11.656,-8.908,-12.114,-9.925,-7.625,-4.603,-0.083,0.995,-0.062,0.214,3.296,-0.488,80.000,8622.000,1.000
-11.525,-9.125,-9.716,-7.916,-8.586,-7.002,-5.060,-2.465,-0.083,0.996,-0.059,0.275,3.204,-0.519,80.000,8623.000,1.000
-10.162,-6.390,-8.189,-6.774,-5.740,-3.947,-2.374,-0.178,-0.084,0.996,-0.059,0.275,3.113,-0.580,80.000,8624.000,1.000
-9.553,-3.897,-8.071,-6.024,-4.812,-1.938,-0.696,1.388,-0.085,0.997,-0.058,0.366,3.082,-0.641,80.000,8625.000,1.000
-10.120,-3.485,-9.538,-6.456,-5.748,-1.764,-0.954,0.917,-0.085,0.999,-0.058,0.488,2.899,-0.702,80.000,8626.000,1.000
-11.392,-5.662,-11.736,-8.075,-7.471,-3.031,-2.917,-1.750,-0.086,0.998,-0.057,0.488,2.838,-0.671,80.000,8627.000,1.000
-12.438,-8.546,-13.437,-9.719,-8.975,-4.496,-5.315,-5.043,-0.085,0.998,-0.057,0.519,2.869,-0.702,80.000,8628.000,1.000
-12.580,-9.657,-13.894,-10.004,-9.921,-5.216,-6.979,-7.052,-0.084,0.997,-0.058,0.580,2.869,-0.671,80.000,8629.000,1.000
-11.693,-8.431,-13.049,-8.601,-10.227,-5.234,-7.711,-7.269,-0.085,1.000,-0.059,0.671,2.899,-0.641,80.000,8630.000,1.000
-10.061,-6.453,-11.244,-6.457,-9.655,-5.170,-8.005,-6.680,-0.084,1.000,-0.057,0.732,2.808,-0.671,80.000,8631.000,1.000
-8.125,-5.259,-8.919,-4.712,-8.076,-5.270,-8.095,-6.226,-0.084,0.999,-0.057,0.702,2.808,-0.641,80.000,8632.000,1.000
-6.258,-4.456,-6.431,-3.514,-5.767,-4.958,-7.467,-5.583,-0.086,0.998,-0.059,0.885,2.747,-0.671,80.000,8633.000,1.000
-4.676,-2.543,-3.980,-2.124,-3.163,-3.432,-5.454,-3.785,-0.087,0.998,-0.055,1.007,2.686,-0.610,80.000,8634.000,1.000
-3.436,0.782,-1.618,-0.035,-0.379,-0.630,-2.180,-0.766,-0.087,1.000,-0.056,1.038,2.686,-0.519,80.000,8635.000,1.000
-2.374,4.006,0.674,2.405,2.731,2.543,1.346,2.290,-0.088,0.998,-0.059,1.068,2.563,-0.427,80.000,8636.000,1.000
-1.182,5.579,2.759,4.458,5.918,4.877,3.983,4.158,-0.087,0.996,-0.058,1.129,2.502,-0.458,80.000,8637.000,1.000
0.245,5.609,4.193,5.758,8.205,5.643,5.156,4.707,-0.088,0.996,-0.057,1.190,2.533,-0.458,80.000,8638.000,1.000
1.563,5.321,4.533,6.409,8.593,4.816,4.865,4.572,-0.087,0.996,-0.056,1.373,2.441,-0.549,80.000,8639.000,1.000
2.258,5.190,3.823,6.468,7.081,2.844,3.350,3.990,-0.086,0.998,-0.059,1.465,2.441,-0.427,80.000,8640.000,1.000
2.190,4.488,2.698,5.743,4.802,0.454,1.067,2.615,-0.085,0.998,-0.058,1.617,2.502,-0.397,80.000,8641.000,1.000
1.709,2.727,1.867,4.256,2.986,-1.528,-1.180,0.507,-0.085,1.000,-0.057,1.587,2.350,-0.244,80.000,8642.000,1.000
1.100,0.707,1.379,2.521,1.858,-2.564,-2.512,-1.310,-0.085,1.002,-0.057,1.617,2.441,-0.153,80.000,8643.000,1.000
0.208,-0.330,0.676,1.173,0.861,-2.635,-2.445,-1.631,-0.085,1.001,-0.057,1.740,2.380,-0.061,80.000,8644.000,1.000
-1.156,-0.190,-0.516,0.473,-0.126,-1.980,-1.004,-0.198,-0.084,1.003,-0.057,1.740,2.289,0.031,80.000,8645.000,1.000
-2.760,0.106,-1.703,0.210,-0.378,-0.789,1.473,2.141,-0.084,1.002,-0.062,1.740,2.319,-0.031,80.000,8646.000,1.000
-4.101,-0.269,-2.214,0.077,0.662,0.810,4.530,4.362,-0.084,0.999,-0.058,1.831,2.350,0.122,80.000,8647.000,1.000
-4.925,-0.880,-2.077,0.019,2.374,2.545,7.649,6.106,-0.084,0.999,-0.060,1.831,2.350,0.153,80.000,8648.000,1.000
-5.543,-0.866,-2.116,0.034,3.319,3.802,10.110,7.396,-0.085,0.999,-0.060,1.831,2.319,0.214,80.000,8649.000,1.000
-6.509,-0.485,-3.102,-0.238,2.621,3.845,11.038,7.842,-0.085,0.999,-0.057,1.862,2.441,0.244,80.000,8650.000,1.000
-7.941,-0.973,-4.881,-1.298,0.809,2.549,10.022,6.803,-0.084,1.000,-0.058,1.801,2.411,0.153,80.000,8651.000,1.000
-9.320,-2.746,-6.448,-3.028,-0.794,0.816,7.755,4.517,-0.082,1.001,-0.063,1.801,2.441,0.214,80.000,8652.000,1.000
-10.096,-4.539,-6.977,-4.503,-1.453,-0.110,5.671,2.414,-0.083,1.002,-0.060,1.709,2.350,0.122,80.000,8653.000,1.000
-10.301,-4.888,-6.646,-4.893,-1.577,0.173,4.685,1.753,-0.083,1.004,-0.060,1.709,2.441,0.153,80.000,8654.000,1.000
-10.272,-3.938,-6.211,-4.325,-1.825,1.004,4.530,2.256,-0.083,1.005,-0.062,1.587,2.472,0.122,80.000,8655.000,1.000
-9.940,-3.119,-5.952,-3.585,-2.043,1.636,4.455,2.581,-0.084,1.002,-0.061,1.526,2.441,0.305,80.000,8656.000,1.000
-8.843,-3.208,-5.467,-3.185,-1.539,2.063,4.213,1.934,-0.084,1.004,-0.062,1.495,2.380,0.183,80.000,8657.000,1.000
-6.907,-3.399,-4.506,-3.017,-0.278,2.706,4.045,0.732,-0.081,1.005,-0.063,1.373,2.472,0.092,80.000,8658.000,1.000
