EEG 1,EEG 2,EEG 3,EEG 4,EEG 5,EEG 6,EEG 7,EEG 8,Accelerometer X,Accelerometer Y,Accelerometer Z,Gyroscope X,Gyroscope Y,Gyroscope Z,Battery Level,Counter,Validation Indicator
4.143,5.954,3.780,4.339,4.452,7.367,4.992,3.597,-0.083,1.000,-0.012,0.977,2.563,-0.977,80.000,8433.000,1.000
5.960,6.632,5.278,5.500,5.702,7.941,6.112,4.475,-0.084,1.001,-0.013,0.946,2.563,-1.038,80.000,8434.000,1.000
7.705,8.630,7.212,7.303,7.058,9.044,8.161,6.761,-0.084,1.000,-0.012,0.946,2.594,-1.038,80.000,8435.000,1.000
9.036,11.022,9.259,9.186,8.188,9.957,9.925,9.178,-0.086,1.000,-0.015,0.854,2.594,-1.007,80.000,8436.000,1.000
9.648,12.119,10.989,10.232,8.931,9.896,10.274,10.222,-0.086,0.999,-0.014,0.885,2.533,-0.916,80.000,8437.000,1.000
9.420,11.391,11.865,10.133,9.084,8.796,9.251,9.767,-0.086,0.999,-0.012,1.007,2.472,-0.824,80.000,8438.000,1.000
8.307,9.720,11.288,9.307,8.251,7.093,7.692,8.844,-0.084,1.000,-0.012,1.099,2.472,-0.793,80.000,8439.000,1.000
6.309,7.927,9.043,8.177,6.240,5.069,6.109,8.061,-0.085,0.999,-0.014,1.099,2.502,-0.763,80.000,8440.000,1.000
3.755,5.899,5.834,6.771,3.628,2.907,4.513,6.942,-0.088,0.999,-0.011,1.160,2.502,-0.916,80.000,8441.000,1.000
1.441,3.479,3.100,5.117,1.563,1.159,3.045,4.929,-0.089,1.000,-0.012,1.190,2.411,-0.824,80.000,8442.000,1.000
0.204,1.581,2.005,3.673,0.782,0.600,2.166,2.477,-0.089,1.001,-0.012,1.221,2.380,-0.702,80.000,8443.000,1.000
0.298,1.608,2.600,3.064,1.025,1.482,2.098,0.709,-0.090,1.001,-0.010,1.312,2.441,-0.702,80.000,8444.000,1.000
1.263,3.690,4.028,3.393,1.533,3.128,2.383,0.139,-0.090,1.001,-0.009,1.312,2.380,-0.763,80.000,8445.000,1.000
2.391,6.147,5.399,4.073,1.947,4.455,2.294,0.199,-0.089,1.001,-0.012,1.404,2.411,-0.763,80.000,8446.000,1.000
3.250,7.147,6.358,4.480,2.493,4.906,1.662,0.179,-0.088,1.000,-0.015,1.404,2.350,-0.824,80.000,8447.000,1.000
3.731,6.554,6.865,4.555,3.285,4.704,0.982,0.167,-0.090,1.000,-0.012,1.373,2.289,-0.916,80.000,8448.000,1.000
3.755,5.680,6.788,4.625,3.847,4.263,0.668,0.676,-0.088,1.000,-0.016,1.312,2.258,-0.793,80.000,8449.000,1.000
3.237,5.540,6.073,4.840,3.692,3.778,0.597,1.665,-0.088,1.001,-0.014,1.373,2.228,-0.702,80.000,8450.000,1.000
2.369,5.889,5.168,4.980,3.113,3.428,0.495,2.375,-0.089,1.002,-0.011,1.404,2.228,-0.824,80.000,8451.000,1.000
1.588,5.938,4.746,4.746,2.825,3.473,0.377,2.155,-0.088,1.003,-0.011,1.434,2.167,-0.763,80.000,8452.000,1.000
1.114,5.503,4.897,4.133,2.914,3.952,0.452,1.232,-0.086,1.001,-0.012,1.434,2.197,-0.732,80.000,8453.000,1.000
0.649,5.015,4.851,3.390,2.573,4.400,0.663,0.387,-0.087,1.003,-0.014,1.526,2.228,-0.610,80.000,8454.000,1.000
-0.372,4.454,3.657,2.551,0.981,3.978,0.394,-0.187,-0.086,1.002,-0.013,1.434,2.289,-0.549,80.000,8455.000,1.000
-2.162,2.945,1.158,1.292,-1.738,2.081,-1.055,-1.223,-0.088,1.002,-0.013,1.404,2.289,-0.549,80.000,8456.000,1.000
-4.186,-0.059,-1.709,-0.461,-4.514,-0.964,-3.509,-3.271,-0.087,1.001,-0.013,1.343,2.289,-0.580,80.000,8457.000,1.000
-5.524,-3.535,-3.672,-2.033,-6.281,-3.934,-5.778,-5.627,-0.086,1.002,-0.014,1.404,2.350,-0.488,80.000,8458.000,1.000
-5.616,-5.488,-4.076,-2.434,-6.754,-5.628,-6.687,-6.872,-0.085,1.003,-0.015,1.373,2.380,-0.397,80.000,8459.000,1.000
-4.556,-4.896,-3.029,-1.277,-6.168,-5.677,-6.002,-6.322,-0.087,1.002,-0.015,1.343,2.411,-0.244,80.000,8460.000,1.000
-2.819,-2.683,-0.959,0.856,-4.635,-4.470,-4.339,-4.613,-0.086,1.004,-0.012,1.343,2.319,-0.244,80.000,8461.000,1.000
-0.954,-0.634,1.590,2.923,-2.245,-2.583,-2.485,-2.850,-0.087,1.002,-0.010,1.251,2.411,-0.336,80.000,8462.000,1.000
0.538,0.389,3.849,4.241,0.319,-0.517,-0.960,-1.477,-0.087,1.001,-0.010,1.251,2.472,-0.305,80.000,8463.000,1.000
1.323,0.841,4.968,4.776,1.882,1.199,-0.033,-0.203,-0.087,0.999,-0.011,1.251,2.563,-0.275,80.000,8464.000,1.000
1.404,1.294,4.626,4.829,1.816,2.057,0.201,1.207,-0.086,1.001,-0.013,1.160,2.625,-0.275,80.000,8465.000,1.000
1.138,1.486,3.420,4.675,0.788,1.907,-0.085,2.483,-0.085,1.003,-0.014,1.221,2.594,-0.275,80.000,8466.000,1.000
0.963,0.939,2.479,4.589,0.175,1.143,-0.412,3.340,-0.084,1.002,-0.014,1.190,2.655,-0.366,80.000,8467.000,1.000
1.107,0.125,2.585,5.046,0.795,0.525,-0.208,4.123,-0.083,1.003,-0.013,1.160,2.563,-0.427,80.000,8468.000,1.000
1.489,0.292,3.634,6.492,2.347,0.697,0.820,5.548,-0.082,1.003,-0.013,1.038,2.686,-0.427,80.000,8469.000,1.000
1.832,1.922,4.912,8.722,4.006,1.746,2.433,7.721,-0.081,1.005,-0.013,1.068,2.747,-0.397,80.000,8470.000,1.000
1.908,3.936,5.784,10.683,5.280,3.245,3.992,9.710,-0.083,1.005,-0.010,1.068,2.747,-0.519,80.000,8471.000,1.000
1.663,4.846,6.036,11.165,6.074,4.677,4.851,10.324,-0.084,1.005,-0.013,1.007,2.716,-0.488,80.000,8472.000,1.000
1.124,4.389,5.675,9.806,6.183,5.699,4.707,9.269,-0.083,1.004,-0.014,0.885,2.869,-0.488,80.000,8473.000,1.000
0.285,3.603,4.732,7.396,5.289,6.115,3.725,7.408,-0.084,1.005,-0.013,0.885,2.930,-0.580,80.000,8474.000,1.000
-0.801,3.349,3.409,5.182,3.609,5.776,2.349,5.866,-0.084,1.004,-0.011,0.671,3.021,-0.610,80.000,8475.000,1.000
-1.926,3.262,2.204,3.883,2.109,4.645,1.027,5.045,-0.085,1.004,-0.012,0.671,3.113,-0.580,80.000,8476.000,1.000
-2.778,2.496,1.640,3.417,1.741,3.009,0.129,4.668,-0.086,1.005,-0.010,0.549,3.082,-0.641,80.000,8477.000,1.000
-3.061,1.203,1.894,3.471,2.532,1.528,-0.062,4.557,-0.085,1.004,-0.010,0.580,3.143,-0.549,80.000,8478.000,1.000
-2.637,0.536,2.637,3.922,3.553,0.756,0.408,4.843,-0.085,1.003,-0.011,0.488,3.143,-0.671,80.000,8479.000,1.000
-1.634,1.061,3.313,4.565,3.781,0.539,0.937,5.313,-0.085,1.005,-0.012,0.519,3.174,-0.763,80.000,8480.000,1.000
-0.337,1.881,3.659,4.874,2.964,0.154,0.662,5.111,-0.086,1.002,-0.008,0.427,3.235,-0.671,80.000,8481.000,1.000
1.042,1.831,3.889,4.490,1.671,-0.870,-0.765,3.620,-0.087,1.003,-0.010,0.519,3.204,-0.671,80.000,8482.000,1.000
2.405,1.158,4.378,3.849,0.666,-2.188,-2.695,1.542,-0.088,1.003,-0.009,0.336,3.143,-0.519,80.000,8483.000,1.000
3.663,1.427,5.317,3.959,0.420,-2.896,-3.882,0.559,-0.088,1.002,-0.010,0.336,3.143,-0.641,80.000,8484.000,1.000
4.689,3.623,6.712,5.384,1.150,-2.351,-3.492,1.683,-0.087,1.003,-0.006,0.305,3.174,-0.671,80.000,8485.000,1.000
5.354,6.832,8.495,7.571,2.926,-0.717,-1.690,4.203,-0.087,1.003,-0.010,0.305,3.143,-0.732,80.000,8486.000,1.000
5.580,9.203,10.434,9.325,5.478,1.304,0.720,6.498,-0.087,1.000,-0.010,0.275,2.991,-0.549,80.000,8487.000,1.000
5.321,9.863,11.960,9.864,7.933,3.047,2.993,7.623,-0.086,1.001,-0.011,0.336,2.991,-0.488,80.000,8488.000,1.000
4.541,9.378,12.295,9.248,9.132,4.101,4.686,7.793,-0.086,0.999,-0.011,0.397,2.899,-0.458,80.000,8489.000,1.000
3.375,8.563,11.125,7.984,8.615,4.361,5.619,7.561,-0.086,1.000,-0.013,0.366,2.838,-0.458,80.000,8490.000,1.000
2.339,7.620,9.215,6.574,7.320,4.266,6.028,7.143,-0.087,0.998,-0.008,0.458,2.838,-0.458,80.000,8491.000,1.000
2.159,6.624,8.045,5.511,6.955,4.741,6.668,6.699,-0.087,0.999,-0.010,0.610,2.808,-0.427,80.000,8492.000,1.000
3.212,6.231,8.595,5.362,8.452,6.480,8.334,6.788,-0.086,0.999,-0.010,0.702,2.869,-0.397,80.000,8493.000,1.000
5.139,7.223,10.512,6.453,11.173,9.166,11.050,8.003,-0.085,0.996,-0.012,0.702,2.899,-0.458,80.000,8494.000,1.000
7.118,9.339,12.553,8.403,13.694,11.578,13.845,10.099,-0.087,0.998,-0.013,0.916,2.869,-0.366,80.000,8495.000,1.000
8.559,11.140,13.738,10.212,15.168,12.578,15.508,11.924,-0.086,0.998,-0.014,1.068,2.838,-0.458,80.000,8496.000,1.000
9.463,11.373,13.921,10.995,15.690,11.982,15.591,12.487,-0.087,0.998,-0.013,1.007,2.838,-0.427,80.000,8497.000,1.000
10.092,10.287,13.358,10.674,15.587,10.555,14.638,11.982,-0.086,0.998,-0.008,1.038,2.747,-0.305,80.000,8498.000,1.000
10.424,9.241,12.109,9.856,14.807,9.200,13.478,11.471,-0.087,0.998,-0.010,1.129,2.686,-0.366,80.000,8499.000,1.000
10.092,8.969,10.069,9.034,13.171,8.153,12.387,11.514,-0.086,1.000,-0.011,1.129,2.625,-0.427,80.000,8500.000,1.000
8.947,8.790,7.503,8.132,10.972,7.076,11.066,11.508,-0.087,1.000,-0.010,1.282,2.625,-0.427,80.000,8501.000,1.000
7.499,7.798,5.209,6.926,8.946,5.783,9.258,10.518,-0.088,1.000,-0.010,1.282,2.716,-0.275,80.000,8502.000,1.000
6.597,6.342,3.964,5.665,7.523,4.521,7.128,8.419,-0.089,1.002,-0.013,1.343,2.563,-0.366,80.000,8503.000,1.000
6.784,5.818,3.963,5.015,6.477,3.608,5.090,5.991,-0.085,1.003,-0.010,1.343,2.594,-0.397,80.000,8504.000,1.000
7.987,6.985,4.873,5.337,5.453,3.020,3.386,3.978,-0.086,1.005,-0.010,1.373,2.533,-0.366,80.000,8505.000,1.000
9.639,8.885,6.160,6.134,4.486,2.368,1.841,2.284,-0.087,1.005,-0.009,1.251,2.716,-0.488,80.000,8506.000,1.000
11.013,9.730,7.235,6.457,3.760,1.221,0.096,0.349,-0.087,1.004,-0.009,1.190,2.625,-0.427,80.000,8507.000,1.000
11.512,8.706,7.459,5.826,3.063,-0.553,-1.902,-1.813,-0.086,1.003,-0.010,1.221,2.625,-0.488,80.000,8508.000,1.000
10.686,6.402,6.221,4.441,1.774,-2.792,-3.834,-3.486,-0.086,1.003,-0.011,1.190,2.716,-0.549,80.000,8509.000,1.000
8.285,3.546,3.287,2.582,-0.481,-5.307,-5.460,-4.281,-0.084,1.003,-0.014,1.160,2.655,-0.610,80.000,8510.000,1.000
4.550,0.077,-0.803,0.214,-3.276,-7.970,-6.867,-4.772,-0.085,1.000,-0.011,1.099,2.655,-0.488,80.000,8511.000,1.000
0.317,-4.110,-4.868,-2.694,-5.668,-10.447,-8.153,-5.813,-0.083,1.001,-0.010,1.160,2.594,-0.549,80.000,8512.000,1.000
-3.451,-8.043,-7.843,-5.735,-7.058,-12.106,-9.133,-7.462,-0.084,1.001,-0.012,1.160,2.716,-0.610,80.000,8513.000,1.000
-6.245,-10.112,-9.412,-8.184,-7.609,-12.462,-9.536,-8.958,-0.083,1.000,-0.010,1.190,2.747,-0.580,80.000,8514.000,1.000
-7.990,-9.728,-9.823,-9.552,-7.722,-11.623,-9.357,-9.673,-0.085,1.001,-0.008,1.221,2.747,-0.519,80.000,8515.000,1.000
-8.519,-7.935,-9.175,-9.803,-7.278,-10.045,-8.719,-9.651,-0.085,1.000,-0.010,1.160,2.808,-0.519,80.000,8516.000,1.000
-7.430,-6.052,-7.174,-9.013,-5.640,-7.870,-7.380,-8.991,-0.086,0.999,-0.010,1.099,2.808,-0.610,80.000,8517.000,1.000
-4.734,-4.108,-3.675,-7.061,-2.423,-4.741,-4.658,-7.117,-0.086,1.000,-0.009,1.099,2.869,-0.519,80.000,8518.000,1.000
-1.482,-1.257,0.641,-3.968,1.807,-0.530,-0.271,-3.341,-0.086,1.000,-0.010,1.160,2.838,-0.641,80.000,8519.000,1.000
0.728,2.219,4.207,-0.580,5.523,3.719,4.593,1.596,-0.085,1.002,-0.010,1.190,2.777,-0.732,80.000,8520.000,1.000
1.142,4.220,5.440,1.476,7.042,5.999,7.476,5.169,-0.086,1.001,-0.013,1.129,2.899,-0.763,80.000,8521.000,1.000
0.542,2.832,3.903,0.981,5.626,4.906,6.502,5.050,-0.085,1.001,-0.013,1.129,3.021,-0.702,80.000,8522.000,1.000
0.358,-1.354,0.618,-1.646,1.929,0.987,2.088,1.435,-0.087,1.001,-0.012,1.129,2.838,-0.854,80.000,8523.000,1.000
1.313,-5.634,-2.803,-4.560,-2.503,-3.680,-3.352,-3.046,-0.087,1.002,-0.014,1.068,2.869,-0.977,80.000,8524.000,1.000
3.036,-7.956,-5.272,-6.071,-6.154,-7.233,-7.422,-5.828,-0.090,1.001,-0.010,1.038,2.777,-0.946,80.000,8525.000,1.000
4.612,-8.793,-6.649,-5.993,-8.226,-9.297,-9.381,-6.518,-0.090,1.002,-0.012,1.129,2.716,-0.885,80.000,8526.000,1.000
5.239,-10.069,-7.477,-5.482,-8.906,-10.669,-9.998,-6.530,-0.088,1.001,-0.012,1.099,2.716,-0.885,80.000,8527.000,1.000
4.515,-12.759,-8.525,-5.744,-9.217,-12.215,-10.357,-7.164,-0.087,1.002,-0.012,1.038,2.686,-0.916,80.000,8528.000,1.000
2.471,-16.031,-10.337,-7.067,-10.297,-14.160,-10.998,-8.490,-0.090,1.004,-0.012,0.977,2.625,-0.977,80.000,8529.000,1.000
-0.367,-18.507,-12.727,-8.864,-12.342,-16.045,-11.779,-9.803,-0.090,1.003,-0.016,0.977,2.502,-1.007,80.000,8530.000,1.000
-2.962,-19.598,-14.614,-10.237,-14.156,-16.979,-12.040,-10.455,-0.089,1.001,-0.014,0.885,2.533,-0.946,80.000,8531.000,1.000
-4.199,-19.357,-14.655,-10.390,-14.028,-16.010,-10.903,-9.959,-0.090,1.003,-0.010,0.824,2.502,-0.854,80.000,8532.000,1.000
-3.752,-17.681,-12.409,-8.881,-11.274,-12.719,-7.815,-7.766,-0.088,1.002,-0.011,0.854,2.533,-0.946,80.000,8533.000,1.000
-2.686,-14.635,-9.082,-6.065,-7.061,-7.939,-3.241,-3.757,-0.089,1.002,-0.016,0.793,2.502,-0.885,80.000,8534.000,1.000
-3.022,-11.629,-7.009,-3.437,-3.752,-3.917,1.038,0.785,-0.089,1.004,-0.013,0.702,2.472,-0.793,80.000,8535.000,1.000
-6.274,-11.194,-8.011,-3.018,-3.267,-3.152,2.721,3.357,-0.090,1.003,-0.010,0.854,2.441,-0.702,80.000,8536.000,1.000
-12.225,-14.803,-12.093,-5.895,-5.946,-6.636,0.506,1.987,-0.090,1.002,-0.013,0.854,2.441,-0.641,80.000,8537.000,1.000
-19.159,-21.182,-17.713,-11.316,-10.842,-13.239,-5.033,-3.151,-0.089,1.001,-0.011,0.824,2.380,-0.671,80.000,8538.000,1.000
-25.096,-27.148,-23.005,-17.226,-16.574,-20.594,-11.921,-9.930,-0.089,1.000,-0.012,0.916,2.380,-0.488,80.000,8539.000,1.000
-28.660,-30.143,-26.568,-21.640,-21.663,-26.438,-18.010,-15.976,-0.090,1.001,-0.011,1.007,2.441,-0.519,80.000,8540.000,1.000
-29.250,-29.888,-27.590,-23.629,-24.663,-29.509,-21.994,-20.091,-0.090,1.001,-0.013,1.038,2.472,-0.488,80.000,8541.000,1.000
-26.999,-27.757,-25.951,-23.330,-24.797,-29.743,-23.623,-22.214,-0.089,0.999,-0.011,0.946,2.411,-0.458,80.000,8542.000,1.000
-22.758,-24.918,-22.429,-21.319,-22.611,-27.861,-23.256,-22.499,-0.089,0.998,-0.012,0.946,2.319,-0.397,80.000,8543.000,1.000
-17.920,-21.578,-18.507,-18.190,-19.644,-24.815,-21.382,-20.940,-0.089,0.996,-0.013,1.129,2.258,-0.336,80.000,8544.000,1.000
-13.966,-17.991,-15.613,-14.713,-17.274,-21.577,-18.591,-17.965,-0.089,0.994,-0.013,1.099,2.319,-0.427,80.000,8545.000,1.000
-11.799,-15.268,-14.307,-11.978,-15.819,-18.938,-15.579,-14.783,-0.088,0.995,-0.014,1.221,2.441,-0.366,80.000,8546.000,1.000
-11.339,-14.423,-14.149,-10.841,-14.684,-17.073,-12.783,-12.580,-0.086,0.997,-0.012,1.312,2.441,-0.336,80.000,8547.000,1.000
-11.756,-14.908,-14.279,-11.163,-13.209,-15.400,-10.098,-11.383,-0.087,0.996,-0.013,1.282,2.472,-0.366,80.000,8548.000,1.000
-12.170,-14.911,-14.094,-11.858,-11.265,-13.146,-7.155,-10.123,-0.086,0.999,-0.011,1.282,2.411,-0.366,80.000,8549.000,1.000
-12.240,-13.378,-13.514,-11.950,-9.118,-10.126,-3.931,-8.009,-0.084,1.003,-0.010,1.373,2.441,-0.397,80.000,8550.000,1.000
-12.252,-11.288,-12.843,-11.533,-7.072,-6.949,-0.988,-5.582,-0.083,1.006,-0.012,1.434,2.472,-0.366,80.000,8551.000,1.000
-12.770,-10.556,-12.569,-11.574,-5.507,-4.581,0.905,-4.152,-0.082,1.007,-0.011,1.312,2.655,-0.336,80.000,8552.000,1.000
-14.229,-11.951,-13.301,-12.849,-5.115,-3.782,1.289,-4.378,-0.081,1.007,-0.012,1.129,2.655,-0.397,80.000,8553.000,1.000
-16.616,-14.439,-15.443,-15.169,-6.541,-4.715,0.265,-5.643,-0.081,1.005,-0.016,1.007,2.777,-0.305,80.000,8554.000,1.000
-19.211,-16.381,-18.493,-17.506,-9.403,-6.698,-1.449,-6.746,-0.083,1.002,-0.016,1.129,2.777,-0.336,80.000,8555.000,1.000
-20.678,-16.817,-20.812,-18.731,-11.912,-8.309,-2.689,-6.904,-0.083,1.000,-0.016,1.099,2.930,-0.336,80.000,8556.000,1.000
-19.849,-15.515,-20.626,-18.251,-12.053,-8.087,-2.413,-6.022,-0.082,1.001,-0.014,1.099,3.082,-0.275,80.000,8557.000,1.000
-16.695,-12.408,-17.523,-16.168,-9.368,-5.518,-0.428,-4.339,-0.083,1.001,-0.012,1.221,3.174,-0.122,80.000,8558.000,1.000
-12.537,-7.741,-12.930,-13.159,-5.434,-1.534,2.361,-2.269,-0.082,1.001,-0.012,1.190,3.357,-0.244,80.000,8559.000,1.000
-9.126,-2.725,-8.986,-10.272,-2.404,2.071,4.536,-0.569,-0.080,1.000,-0.016,1.190,3.510,-0.092,80.000,8560.000,1.000
-7.400,0.731,-6.928,-8.520,-1.208,3.971,5.211,-0.153,-0.082,1.002,-0.016,1.190,3.662,-0.061,80.000,8561.000,1.000
-7.142,1.456,-6.577,-8.353,-1.310,4.165,4.585,-1.358,-0.083,1.002,-0.016,1.221,3.632,-0.122,80.000,8562.000,1.000
-7.628,0.161,-7.112,-9.371,-1.882,3.629,3.552,-3.442,-0.085,1.002,-0.017,1.038,3.693,-0.092,80.000,8563.000,1.000
-8.280,-1.110,-7.892,-10.544,-2.594,3.344,2.855,-5.051,-0.087,1.003,-0.010,1.251,3.601,-0.122,80.000,8564.000,1.000
-8.747,-0.847,-8.506,-10.924,-3.277,3.652,2.600,-5.353,-0.090,1.003,-0.011,1.251,3.754,-0.397,80.000,8565.000,1.000
-8.775,0.693,-8.527,-10.290,-3.462,4.329,2.442,-4.722,-0.089,1.004,-0.014,1.221,3.632,-0.458,80.000,8566.000,1.000
-8.223,2.232,-7.588,-9.075,-2.651,5.086,2.170,-4.119,-0.090,1.004,-0.016,1.221,3.571,-0.580,80.000,8567.000,1.000
-7.182,3.177,-5.736,-7.726,-0.966,5.860,1.996,-3.879,-0.091,1.007,-0.014,1.312,3.418,-0.732,80.000,8568.000,1.000
-5.978,4.066,-3.563,-6.340,0.784,6.641,2.196,-3.443,-0.093,1.005,-0.013,1.221,3.418,-0.885,80.000,8569.000,1.000
-4.905,5.418,-1.751,-4.887,1.930,7.304,2.726,-2.282,-0.089,1.008,-0.014,1.068,3.387,-0.916,80.000,8570.000,1.000
-3.932,6.808,-0.433,-3.486,2.761,7.836,3.417,-0.597,-0.088,1.008,-0.014,0.946,3.296,-1.038,80.000,8571.000,1.000
-2.795,7.465,0.802,-2.272,4.185,8.526,4.351,1.078,-0.088,1.007,-0.013,0.885,3.326,-1.068,80.000,8572.000,1.000
-1.403,7.492,2.262,-1.096,6.580,9.754,5.846,2.696,-0.087,1.007,-0.013,0.793,3.296,-1.099,80.000,8573.000,1.000
-0.031,7.918,3.740,0.395,9.313,11.576,8.023,4.673,-0.087,1.008,-0.013,0.702,3.387,-1.099,80.000,8574.000,1.000
0.929,9.325,4.821,2.224,11.427,13.511,10.417,6.965,-0.088,1.008,-0.011,0.549,3.235,-1.038,80.000,8575.000,1.000
1.308,10.888,5.365,3.753,12.522,14.743,12.112,8.585,-0.089,1.008,-0.010,0.519,3.296,-1.038,80.000,8576.000,1.000
1.276,11.243,5.557,4.153,12.796,14.613,12.357,8.453,-0.088,1.007,-0.009,0.427,3.326,-0.824,80.000,8577.000,1.000
1.189,10.238,5.644,3.310,12.488,13.123,11.168,6.703,-0.088,1.007,-0.010,0.397,3.204,-0.824,80.000,8578.000,1.000
1.413,9.313,5.821,2.142,11.711,11.037,9.378,4.801,-0.089,1.008,-0.010,0.153,3.113,-0.885,80.000,8579.000,1.000
2.200,9.850,6.328,1.818,10.799,9.339,7.934,4.124,-0.088,1.007,-0.007,0.092,3.082,-0.854,80.000,8580.000,1.000
3.654,11.637,7.502,2.741,10.489,8.580,7.221,4.684,-0.090,1.003,-0.008,0.031,2.991,-0.824,80.000,8581.000,1.000
5.701,13.419,9.567,4.471,11.481,8.859,7.232,5.611,-0.090,1.001,-0.006,0.061,2.991,-0.641,80.000,8582.000,1.000
8.018,14.598,12.232,6.438,13.684,10.026,7.954,6.485,-0.090,0.998,-0.009,0.031,2.838,-0.702,80.000,8583.000,1.000
10.071,15.681,14.608,8.399,16.044,11.602,9.178,7.587,-0.092,0.995,-0.012,0.061,2.808,-0.610,80.000,8584.000,1.000
11.394,17.080,15.802,10.154,17.344,12.772,10.220,8.956,-0.092,0.993,-0.008,0.244,2.686,-0.549,80.000,8585.000,1.000
11.890,18.123,15.626,11.188,17.155,12.803,10.237,9.805,-0.092,0.992,-0.010,0.397,2.563,-0.549,80.000,8586.000,1.000
11.846,17.785,14.635,10.946,15.899,11.557,8.902,9.194,-0.093,0.992,-0.009,0.458,2.502,-0.488,80.000,8587.000,1.000
11.596,16.104,13.491,9.504,14.130,9.513,6.647,7.126,-0.093,0.990,-0.008,0.488,2.350,-0.397,80.000,8588.000,1.000
11.208,14.260,12.379,7.643,11.990,7.306,4.204,4.629,-0.092,0.992,-0.008,0.580,2.258,-0.397,80.000,8589.000,1.000
10.560,13.157,11.126,6.139,9.504,5.282,2.033,2.704,-0.093,0.992,-0.008,0.732,2.167,-0.305,80.000,8590.000,1.000
9.705,12.424,9.719,5.131,7.108,3.492,0.252,1.485,-0.094,0.993,-0.008,0.885,2.106,-0.305,80.000,8591.000,1.000
8.984,11.139,8.450,4.277,5.491,1.983,-1.051,0.581,-0.094,0.994,-0.009,1.129,2.014,-0.366,80.000,8592.000,1.000
8.709,9.216,7.531,3.404,4.825,0.924,-1.662,-0.059,-0.091,0.996,-0.009,1.160,1.984,-0.397,80.000,8593.000,1.000
8.762,7.492,6.717,2.701,4.443,0.386,-1.532,-0.113,-0.090,0.999,-0.009,1.160,1.953,-0.397,80.000,8594.000,1.000
8.678,6.436,5.543,2.242,3.532,0.138,-1.057,0.315,-0.090,1.001,-0.013,1.190,1.892,-0.458,80.000,8595.000,1.000
8.260,5.485,4.058,1.753,2.142,-0.069,-0.731,0.473,-0.090,1.001,-0.012,1.221,1.831,-0.519,80.000,8596.000,1.000
8.011,4.090,3.085,1.101,1.246,-0.052,-0.506,-0.111,-0.091,1.005,-0.009,1.190,1.770,-0.519,80.000,8597.000,1.000
8.670,2.894,3.439,0.728,1.630,0.712,0.190,-0.822,-0.090,1.005,-0.010,1.221,1.678,-0.549,80.000,8598.000,1.000
10.253,3.122,4.893,1.169,2.891,2.319,1.584,-0.610,-0.088,1.005,-0.007,1.099,1.709,-0.488,80.000,8599.000,1.000
11.822,4.795,6.235,2.166,3.782,3.952,2.897,0.496,-0.085,1.004,-0.010,1.160,1.740,-0.549,80.000,8600.000,1.000
12.396,6.313,6.465,2.653,3.522,4.493,2.935,1.114,-0.084,1.003,-0.009,1.190,1.770,-0.488,80.000,8601.000,1.000
11.892,6.131,5.651,1.782,2.430,3.640,1.344,0.002,-0.085,1.005,-0.008,1.099,1.801,-0.458,80.000,8602.000,1.000
10.976,4.470,4.514,-0.167,1.278,2.143,-0.958,-2.476,-0.084,1.003,-0.008,1.160,1.770,-0.580,80.000,8603.000,1.000
10.147,2.911,3.470,-2.038,0.410,0.960,-2.638,-4.682,-0.085,1.002,-0.012,1.129,1.831,-0.580,80.000,8604.000,1.000
9.266,2.415,2.364,-2.959,-0.330,0.359,-3.119,-5.448,-0.085,1.001,-0.010,1.068,1.923,-0.580,80.000,8605.000,1.000
8.063,2.317,1.066,-3.023,-1.020,-0.009,-2.781,-5.104,-0.084,1.004,-0.007,1.129,1.923,-0.610,80.000,8606.000,1.000
6.762,1.522,-0.023,-2.755,-1.394,-0.349,-2.170,-4.653,-0.084,1.003,-0.012,1.038,2.014,-0.610,80.000,8607.000,1.000
5.884,0.089,-0.394,-2.300,-1.343,-0.520,-1.478,-4.401,-0.083,1.003,-0.010,1.099,2.258,-0.488,80.000,8608.000,1.000
5.485,-0.998,-0.233,-1.526,-1.462,-0.659,-0.936,-3.940,-0.083,1.005,-0.007,1.129,2.319,-0.519,80.000,8609.000,1.000
4.979,-1.439,-0.423,-0.766,-2.659,-1.492,-1.227,-3.314,-0.083,1.005,-0.011,1.160,2.472,-0.519,80.000,8610.000,1.000
3.823,-2.278,-1.670,-1.000,-5.206,-3.717,-3.086,-3.537,-0.083,1.004,-0.013,1.160,2.533,-0.549,80.000,8611.000,1.000
2.126,-4.616,-3.880,-3.025,-8.504,-7.242,-6.512,-5.614,-0.084,1.003,-0.009,1.221,2.502,-0.580,80.000,8612.000,1.000
0.412,-8.079,-6.464,-6.506,-11.796,-11.105,-10.531,-9.213,-0.086,1.004,-0.010,1.190,2.655,-0.580,80.000,8613.000,1.000
-0.953,-10.993,-8.898,-10.037,-14.725,-14.119,-13.812,-12.682,-0.086,1.004,-0.015,1.190,2.808,-0.671,80.000,8614.000,1.000
-1.854,-12.069,-10.778,-12.220,-17.038,-15.579,-15.553,-14.537,-0.085,1.002,-0.012,1.190,2.777,-0.702,80.000,8615.000,1.000
-2.127,-11.543,-11.580,-12.675,-18.131,-15.425,-15.748,-14.700,-0.086,1.001,-0.010,1.312,2.869,-0.671,80.000,8616.000,1.000
-1.490,-10.449,-10.782,-11.933,-17.350,-13.916,-14.764,-14.067,-0.088,1.000,-0.011,1.282,2.838,-0.641,80.000,8617.000,1.000
0.143,-9.116,-8.353,-10.565,-14.797,-11.383,-12.964,-13.192,-0.088,1.000,-0.012,1.373,2.869,-0.732,80.000,8618.000,1.000
2.371,-6.991,-5.073,-8.787,-11.601,-8.371,-10.780,-11.927,-0.088,0.999,-0.012,1.343,3.082,-0.854,80.000,8619.000,1.000
4.397,-4.044,-2.190,-6.922,-9.163,-5.805,-8.902,-10.317,-0.087,1.000,-0.015,1.404,3.021,-0.641,80.000,8620.000,1.000
5.504,-1.590,-0.611,-5.688,-8.075,-4.655,-8.033,-9.141,-0.089,1.000,-0.013,1.404,3.143,-0.671,80.000,8621.000,1.000
5.471,-1.156,-0.388,-5.656,-7.899,-5.252,-8.316,-9.153,-0.089,1.003,-0.008,1.495,3.174,-0.702,80.000,8622.000,1.000
4.532,-2.761,-1.018,-6.539,-7.950,-6.996,-9.119,-10.035,-0.091,1.000,-0.010,1.526,3.082,-0.702,80.000,8623.000,1.000
3.057,-4.795,-1.997,-7.289,-7.961,-8.758,-9.494,-10.496,-0.090,0.999,-0.014,1.495,3.082,-0.854,80.000,8624.000,1.000
1.350,-5.734,-3.022,-7.051,-7.930,-9.675,-8.940,-9.623,-0.089,1.002,-0.015,1.373,3.113,-0.732,80.000,8625.000,1.000
-0.323,-5.603,-3.812,-5.972,-7.682,-9.624,-7.710,-7.885,-0.090,1.004,-0.013,1.343,3.174,-0.702,80.000,8626.000,1.000
-1.584,-5.364,-3.971,-4.805,-6.886,-8.883,-6.292,-6.472,-0.090,1.003,-0.011,1.282,3.082,-0.549,80.000,8627.000,1.000
-2.022,-5.308,-3.246,-3.911,-5.584,-7.652,-4.899,-5.868,-0.087,1.002,-0.009,1.221,3.143,-0.488,80.000,8628.000,1.000
-1.521,-4.760,-1.953,-2.991,-4.451,-6.100,-3.589,-5.533,-0.087,1.004,-0.012,1.404,3.174,-0.305,80.000,8629.000,1.000
-0.296,-3.245,-0.738,-1.639,-4.039,-4.428,-2.441,-4.773,-0.090,1.004,-0.011,1.312,3.204,-0.183,80.000,8630.000,1.000
1.470,-1.232,0.210,0.206,-3.847,-2.554,-1.343,-3.456,-0.089,1.004,-0.012,1.221,3.235,-0.031,80.000,8631.000,1.000
3.721,0.524,1.362,2.363,-2.714,-0.033,0.033,-1.837,-0.089,1.002,-0.012,1.190,3.235,-0.061,80.000,8632.000,1.000
6.207,2.063,3.144,4.689,-0.239,3.395,1.815,-0.013,-0.090,1.001,-0.014,1.129,3.113,0.214,80.000,8633.000,1.000
8.327,4.136,5.298,7.139,2.654,7.284,3.640,2.172,-0.092,0.997,-0.013,1.099,3.235,0.305,80.000,8634.000,1.000
9.411,6.849,7.045,9.491,4.637,10.494,4.801,4.576,-0.095,0.996,-0.015,1.099,3.174,0.275,80.000,8635.000,1.000
9.146,8.850,7.685,11.083,5.064,11.734,4.633,6.320,-0.091,0.998,-0.013,1.251,3.052,0.336,80.000,8636.000,1.000
7.766,8.436,7.029,11.208,4.113,10.377,2.969,6.418,-0.093,0.997,-0.012,1.221,2.960,0.397,80.000,8637.000,1.000
5.772,5.323,5.284,9.833,2.147,6.841,0.297,4.875,-0.093,0.998,-0.013,1.312,2.899,0.397,80.000,8638.000,1.000
3.456,0.877,2.634,7.644,-0.758,2.159,-2.668,2.730,-0.092,0.999,-0.016,1.404,2.838,0.397,80.000,8639.000,1.000
0.850,-3.352,-0.801,5.346,-4.448,-2.650,-5.475,0.897,-0.093,0.998,-0.014,1.434,2.838,0.275,80.000,8640.000,1.000
-1.893,-6.856,-4.562,3.120,-8.082,-6.735,-7.876,-0.640,-0.090,0.996,-0.015,1.495,2.808,0.153,80.000,8641.000,1.000
-4.278,-9.787,-7.773,0.865,-10.402,-9.314,-9.493,-2.286,-0.090,0.998,-0.014,1.465,2.777,0.061,80.000,8642.000,1.000
-5.803,-11.856,-9.734,-1.192,-10.875,-9.982,-9.931,-3.859,-0.087,1.001,-0.016,1.495,2.747,0.031,80.000,8643.000,1.000
-6.421,-12.288,-10.484,-2.427,-10.245,-9.191,-9.300,-4.611,-0.085,1.000,-0.013,1.434,2.747,-0.061,80.000,8644.000,1.000
-6.481,-10.901,-10.508,-2.414,-9.615,-8.015,-8.281,-4.162,-0.085,1.004,-0.012,1.434,2.747,0.000,80.000,8645.000,1.000
-6.159,-8.637,-9.973,-1.359,-9.159,-7.176,-7.467,-3.009,-0.087,1.003,-0.014,1.434,2.747,0.000,80.000,8646.000,1.000
-5.117,-6.602,-8.533,0.209,-8.071,-6.379,-6.721,-1.887,-0.084,1.004,-0.013,1.373,2.686,0.000,80.000,8647.000,1.000
-2.883,-4.774,-5.916,2.046,-5.702,-4.684,-5.333,-0.813,-0.084,1.004,-0.014,1.282,2.686,0.061,80.000,8648.000,1.000
0.507,-2.166,-2.460,4.302,-2.392,-1.547,-2.822,0.893,-0.084,1.006,-0.013,1.160,2.747,0.092,80.000,8649.000,1.000
4.469,1.703,1.185,7.105,1.047,2.622,0.587,3.645,-0.084,1.008,-0.011,1.099,2.777,0.061,80.000,8650.000,1.000
8.400,5.936,4.732,10.169,4.302,6.883,4.247,6.936,-0.083,1.011,-0.012,1.068,2.838,0.031,80.000,8651.000,1.000
11.920,9.114,8.280,12.904,7.571,10.473,7.548,9.785,-0.084,1.009,-0.012,0.824,2.808,0.031,80.000,8652.000,1.000
14.596,10.723,11.640,14.838,10.675,13.006,10.014,11.651,-0.086,1.012,-0.012,0.732,2.869,-0.092,80.000,8653.000,1.000
15.671,11.258,13.875,15.750,12.592,14.185,11.178,12.607,-0.086,1.009,-0.010,0.519,2.991,-0.244,80.000,8654.000,1.000
14.358,10.968,13.795,15.366,12.194,13.582,10.573,12.634,-0.086,1.009,-0.010,0.427,3.021,-0.275,80.000,8655.000,1.000
10.643,9.261,11.073,13.332,9.438,11.059,8.122,11.300,-0.086,1.009,-0.009,0.214,2.899,-0.244,80.000,8656.000,1.000
5.675,5.820,6.846,9.820,5.675,7.422,4.692,8.542,-0.084,1.009,-0.011,0.092,2.960,-0.336,80.000,8657.000,1.000
1.009,1.819,2.977,5.971,2.642,4.282,1.922,5.453,-0.083,1.007,-0.010,0.092,2.960,-0.336,80.000,8658.000,1.000
-2.463,-0.806,0.581,3.223,1.048,2.785,0.915,3.528,-0.082,1.005,-0.009,0.031,2.960,-0.336,80.000,8659.000,1.000
-4.651,-1.370,-0.595,2.026,0.242,2.577,1.122,2.993,-0.081,1.004,-0.009,0.061,3.052,-0.336,80.000,8660.000,1.000
-5.606,-1.034,-1.243,1.583,-0.607,2.481,1.047,2.556,-0.082,1.004,-0.010,0.031,3.235,-0.305,80.000,8661.000,1.000
-5.189,-1.184,-1.398,0.972,-1.427,1.968,-0.046,1.044,-0.084,1.000,-0.011,0.000,3.357,-0.153,80.000,8662.000,1.000
-3.522,-1.899,-0.775,0.062,-1.814,1.301,-1.767,-1.339,-0.086,0.999,-0.009,0.122,3.479,-0.153,80.000,8663.000,1.000
-1.566,-2.437,0.147,-0.836,-2.198,0.427,-3.742,-3.634,-0.085,0.997,-0.007,0.153,3.662,-0.183,80.000,8664.000,1.000
-0.770,-2.752,0.189,-1.765,-3.555,-1.374,-6.251,-5.496,-0.087,0.996,-0.007,0.305,3.540,-0.092,80.000,8665.000,1.000
-1.843,-3.753,-1.230,-3.105,-5.967,-4.411,-9.399,-7.406,-0.088,1.000,-0.005,0.366,3.632,-0.153,80.000,8666.000,1.000
-3.940,-5.798,-3.220,-4.743,-8.045,-7.528,-12.071,-9.453,-0.090,0.997,-0.008,0.519,3.662,-0.275,80.000,8667.000,1.000
-5.204,-7.375,-3.998,-5.519,-7.997,-8.475,-12.192,-10.311,-0.093,0.997,-0.007,0.671,3.662,-0.244,80.000,8668.000,1.000
-4.188,-5.998,-2.270,-3.868,-5.054,-5.499,-8.305,-8.027,-0.095,0.996,-0.008,0.824,3.601,-0.397,80.000,8669.000,1.000
-0.780,-0.659,1.958,0.829,0.220,1.310,-0.907,-2.005,-0.097,0.996,-0.005,0.977,3.479,-0.427,80.000,8670.000,1.000
3.948,6.827,7.580,7.439,6.507,9.884,7.624,5.925,-0.097,0.996,-0.006,0.977,3.326,-0.366,80.000,8671.000,1.000
8.450,13.135,13.026,13.616,12.223,17.262,14.355,12.626,-0.096,0.997,-0.004,1.221,3.265,-0.397,80.000,8672.000,1.000
11.351,16.100,16.847,17.380,15.826,21.158,17.441,16.030,-0.095,0.998,-0.006,1.251,3.082,-0.488,80.000,8673.000,1.000
11.831,15.905,18.112,18.225,16.319,20.913,16.870,16.312,-0.095,0.999,-0.006,1.404,2.869,-0.366,80.000,8674.000,1.000
9.800,13.860,16.692,16.803,13.909,17.452,13.967,14.870,-0.094,0.999,-0.006,1.404,2.625,-0.336,80.000,8675.000,1.000
6.082,10.906,13.498,14.092,10.259,12.743,10.534,12.906,-0.093,0.998,-0.004,1.434,2.502,-0.305,80.000,8676.000,1.000
2.249,7.608,10.241,11.122,7.633,8.898,8.175,11.178,-0.091,0.999,-0.010,1.587,2.441,-0.183,80.000,8677.000,1.000
-0.164,4.963,8.468,9.062,7.363,7.204,7.801,10.473,-0.092,0.999,-0.010,1.709,2.258,-0.183,80.000,8678.000,1.000
-0.516,4.292,8.642,8.934,9.112,7.719,9.393,11.531,-0.093,0.997,-0.012,1.831,2.228,-0.183,80.000,8679.000,1.000
0.775,5.937,10.112,10.888,11.576,9.552,12.082,14.240,-0.089,0.997,-0.009,1.984,2.167,-0.122,80.000,8680.000,1.000
2.819,8.543,11.905,13.906,13.779,11.626,14.708,17.304,-0.089,0.998,-0.009,2.045,2.045,0.153,80.000,8681.000,1.000
4.956,10.258,13.478,16.566,15.600,13.417,16.621,19.237,-0.089,0.998,-0.010,2.197,1.984,0.031,80.000,8682.000,1.000
6.880,10.549,14.660,18.105,17.143,14.989,17.915,19.659,-0.088,0.998,-0.014,2.228,1.923,0.031,80.000,8683.000,1.000
8.314,10.423,15.214,18.642,18.080,16.531,18.966,19.344,-0.089,0.999,-0.014,2.319,1.801,0.183,80.000,8684.000,1.000
8.882,10.848,14.853,18.494,17.967,18.013,19.890,19.039,-0.086,1.000,-0.012,2.258,1.678,0.183,80.000,8685.000,1.000
8.319,11.364,13.583,17.504,16.869,19.022,20.285,18.445,-0.085,1.001,-0.011,2.197,1.709,0.244,80.000,8686.000,1.000
6.698,10.702,11.786,15.266,15.268,18.920,19.494,16.646,-0.086,0.999,-0.010,2.289,1.556,0.122,80.000,8687.000,1.000
4.433,8.586,9.892,11.984,13.490,17.391,17.350,13.521,-0.084,0.998,-0.011,2.380,1.556,0.183,80.000,8688.000,1.000
1.920,6.091,7.923,8.619,11.381,14.622,14.389,10.139,-0.084,0.998,-0.012,2.350,1.648,0.153,80.000,8689.000,1.000
-0.792,4.054,5.471,5.954,8.616,10.911,11.191,7.531,-0.083,0.998,-0.015,2.380,1.526,0.153,80.000,8690.000,1.000
-3.725,1.987,2.343,3.891,5.396,6.608,7.989,5.627,-0.083,0.999,-0.013,2.441,1.556,0.122,80.000,8691.000,1.000
-6.528,-0.978,-0.954,1.877,2.540,2.472,5.070,3.762,-0.083,1.002,-0.012,2.502,1.617,0.092,80.000,8692.000,1.000
-8.655,-4.574,-3.673,-0.271,0.629,-0.498,2.988,1.796,-0.081,1.001,-0.013,2.472,1.678,0.061,80.000,8693.000,1.000
-9.959,-7.505,-5.650,-2.221,-0.754,-1.937,1.966,0.209,-0.080,1.001,-0.014,2.594,1.648,0.061,80.000,8694.000,1.000
-10.845,-9.069,-7.394,-3.714,-2.575,-2.597,1.342,-0.872,-0.080,1.004,-0.017,2.563,1.801,0.000,80.000,8695.000,1.000
-11.707,-10.006,-9.263,-4.935,-5.139,-3.583,0.088,-2.124,-0.081,1.003,-0.019,2.472,1.984,-0.092,80.000,8696.000,1.000
-12.277,-11.245,-10.715,-5.998,-7.513,-5.032,-1.921,-3.995,-0.082,1.006,-0.018,2.380,2.075,-0.153,80.000,8697.000,1.000
-11.817,-12.236,-10.689,-6.301,-8.316,-5.802,-3.437,-5.530,-0.083,1.004,-0.014,2.289,2.228,-0.214,80.000,8698.000,1.000
-10.100,-11.381,-8.812,-4.962,-7.072,-4.713,-3.002,-5.012,-0.083,1.004,-0.016,2.319,2.258,-0.244,80.000,8699.000,1.000
-7.952,-8.138,-5.911,-2.013,-4.561,-1.927,-0.518,-1.930,-0.081,1.004,-0.017,2.228,2.228,-0.305,80.000,8700.000,1.000
-6.572,-3.976,-3.191,1.265,-1.875,1.169,2.611,2.188,-0.082,1.004,-0.016,2.106,2.350,-0.366,80.000,8701.000,1.000
-6.503,-0.925,-1.258,3.323,0.417,3.242,4.752,5.123,-0.083,1.007,-0.017,1.953,2.411,-0.336,80.000,8702.000,1.000
-7.419,0.395,-0.103,3.590,2.049,3.943,5.219,5.892,-0.083,1.006,-0.018,1.923,2.472,-0.458,80.000,8703.000,1.000
-8.647,1.004,0.370,2.740,2.679,3.791,4.398,5.253,-0.083,1.006,-0.018,1.862,2.625,-0.519,80.000,8704.000,1.000
-9.711,1.902,0.171,1.814,2.193,3.408,3.022,4.495,-0.080,1.009,-0.019,1.678,2.716,-0.519,80.000,8705.000,1.000
-10.432,2.712,-0.521,1.243,1.147,2.959,1.499,4.090,-0.079,1.009,-0.021,1.495,2.808,-0.580,80.000,8706.000,1.000
-10.666,2.426,-1.175,0.866,0.547,2.416,0.030,3.769,-0.079,1.009,-0.017,1.312,2.930,-0.580,80.000,8707.000,1.000
-10.304,1.024,-1.324,0.555,0.884,1.892,-1.151,3.407,-0.080,1.007,-0.019,1.190,2.991,-0.671,80.000,8708.000,1.000
-9.800,-0.568,-1.343,0.197,1.314,1.190,-2.201,3.049,-0.081,1.009,-0.019,1.038,3.113,-0.580,80.000,8709.000,1.000
-10.314,-2.119,-2.485,-0.847,0.122,-0.634,-4.041,2.099,-0.084,1.010,-0.019,0.977,3.235,-0.610,80.000,8710.000,1.000
-12.819,-4.733,-5.750,-3.615,-3.682,-4.541,-7.652,-0.659,-0.086,1.010,-0.015,0.732,3.448,-0.610,80.000,8711.000,1.000
-16.853,-9.141,-10.589,-8.262,-9.149,-10.068,-12.708,-5.565,-0.086,1.010,-0.012,0.580,3.448,-0.671,80.000,8712.000,1.000
-20.254,-13.678,-14.751,-12.932,-13.756,-14.838,-17.030,-10.710,-0.090,1.010,-0.013,0.366,3.479,-0.610,80.000,8713.000,1.000
-20.561,-14.960,-15.721,-14.598,-15.086,-16.080,-17.908,-12.853,-0.090,1.008,-0.012,0.275,3.479,-0.702,80.000,8714.000,1.000
-17.099,-11.159,-12.646,-11.704,-12.472,-12.951,-14.398,-10.329,-0.094,1.005,-0.010,0.214,3.387,-0.732,80.000,8715.000,1.000
-11.623,-4.240,-7.047,-5.915,-7.378,-7.356,-8.369,-4.929,-0.096,1.005,-0.010,0.244,3.296,-0.793,80.000,8716.000,1.000
-6.827,1.540,-1.760,-0.917,-2.498,-2.591,-3.256,-0.536,-0.095,1.004,-0.008,0.183,3.052,-0.824,80.000,8717.000,1.000
-4.414,3.359,0.951,0.650,-0.162,-1.052,-1.567,0.282,-0.095,1.005,-0.008,0.092,2.808,-0.885,80.000,8718.000,1.000
-4.404,1.851,0.661,-0.937,-0.977,-2.833,-3.297,-1.793,-0.094,1.005,-0.006,0.092,2.594,-0.885,80.000,8719.000,1.000
-5.605,-0.399,-1.319,-3.390,-3.603,-6.164,-6.505,-4.184,-0.094,1.005,-0.006,0.153,2.319,-0.916,80.000,8720.000,1.000
-6.558,-1.605,-3.036,-4.657,-5.725,-8.921,-9.011,-5.032,-0.094,1.004,-0.005,0.183,2.258,-0.916,80.000,8721.000,1.000
-6.464,-1.751,-3.199,-4.194,-5.603,-9.829,-9.535,-4.158,-0.089,1.001,-0.005,0.244,1.984,-0.763,80.000,8722.000,1.000
-5.647,-1.551,-2.009,-2.660,-3.279,-8.835,-7.923,-2.193,-0.086,1.001,-0.004,0.336,1.862,-0.793,80.000,8723.000,1.000
-5.172,-1.356,-0.883,-1.018,-0.439,-6.809,-4.960,0.290,-0.084,1.001,-0.004,0.488,2.075,-0.671,80.000,8724.000,1.000
-5.888,-1.321,-1.147,-0.011,1.120,-4.922,-1.980,2.671,-0.080,0.999,-0.006,0.641,2.136,-0.610,80.000,8725.000,1.000
-7.795,-1.956,-2.893,-0.122,0.954,-4.002,-0.199,4.000,-0.078,1.000,-0.006,0.824,2.380,-0.336,80.000,8726.000,1.000
-10.163,-3.732,-5.097,-1.493,-0.077,-4.155,-0.035,3.507,-0.077,0.998,-0.008,1.038,2.625,-0.122,80.000,8727.000,1.000
-12.061,-6.103,-6.647,-3.641,-1.068,-4.955,-0.987,1.551,-0.077,0.996,-0.006,1.160,2.899,0.336,80.000,8728.000,1.000
-12.716,-7.476,-7.020,-5.380,-1.802,-5.861,-2.065,-0.292,-0.082,0.997,-0.007,1.373,3.082,0.397,80.000,8729.000,1.000
-11.566,-6.546,-6.154,-5.478,-2.210,-6.349,-2.302,-0.430,-0.081,0.995,-0.007,1.434,3.326,0.702,80.000,8730.000,1.000
-8.410,-3.647,-4.177,-3.704,-1.821,-5.954,-1.192,1.330,-0.082,0.992,-0.007,1.587,3.662,0.732,80.000,8731.000,1.000
-3.733,-0.384,-1.451,-1.091,-0.213,-4.504,1.084,3.757,-0.083,0.991,-0.010,1.862,3.754,0.793,80.000,8732.000,1.000
1.248,2.046,1.274,1.004,2.175,-2.321,3.771,5.495,-0.083,0.992,-0.009,2.075,3.998,0.916,80.000,8733.000,1.000
5.063,3.657,3.001,1.909,4.009,-0.209,5.860,6.042,-0.085,0.994,-0.010,2.289,4.150,0.885,80.000,8734.000,1.000
6.793,4.821,3.170,1.741,4.189,0.994,6.582,5.551,-0.084,0.993,-0.012,2.441,4.181,1.068,80.000,8735.000,1.000
6.670,5.428,2.353,0.960,3.059,1.126,5.990,4.299,-0.083,0.994,-0.013,2.594,4.456,0.977,80.000,8736.000,1.000
5.910,5.299,1.965,0.109,2.225,0.965,5.112,2.715,-0.084,0.996,-0.015,2.747,4.608,0.946,80.000,8737.000,1.000
5.832,5.086,3.061,-0.155,3.006,1.637,5.280,1.690,-0.082,1.000,-0.015,2.838,4.639,0.977,80.000,8738.000,1.000
6.989,6.069,5.508,0.778,5.253,3.639,7.133,2.284,-0.084,1.001,-0.013,2.777,4.822,0.885,80.000,8739.000,1.000
8.973,8.720,8.300,2.937,7.789,6.377,10.121,4.701,-0.083,1.000,-0.012,2.808,4.974,0.641,80.000,8740.000,1.000
10.894,11.815,10.488,5.429,9.685,8.701,12.960,7.686,-0.084,1.003,-0.014,2.655,5.188,0.732,80.000,8741.000,1.000
12.025,13.453,11.711,7.002,10.808,9.826,14.552,9.417,-0.085,1.001,-0.015,2.625,5.249,0.702,80.000,8742.000,1.000
12.010,12.863,11.914,7.030,11.205,9.670,14.526,9.055,-0.085,1.001,-0.017,2.502,5.371,0.702,80.000,8743.000,1.000
10.685,10.800,10.878,5.820,10.486,8.408,13.033,7.135,-0.084,1.002,-0.020,2.441,5.402,0.641,80.000,8744.000,1.000
8.219,8.351,8.530,4.100,8.325,6.197,10.419,4.598,-0.086,1.004,-0.020,2.472,5.554,0.610,80.000,8745.000,1.000
5.599,6.069,5.761,2.586,5.508,3.602,7.378,1.995,-0.088,1.004,-0.018,2.441,5.585,0.488,80.000,8746.000,1.000
4.445,4.354,4.341,1.940,3.813,1.826,5.089,-0.251,-0.090,1.000,-0.019,2.289,5.463,0.397,80.000,8747.000,1.000
5.824,3.951,5.501,2.676,4.390,1.896,4.571,-1.412,-0.090,1.000,-0.018,2.258,5.402,0.244,80.000,8748.000,1.000
9.148,5.431,8.664,4.769,6.513,3.623,5.741,-0.877,-0.093,1.001,-0.020,2.258,5.310,0.244,80.000,8749.000,1.000
12.457,8.188,11.838,7.324,8.327,5.670,7.349,0.967,-0.094,1.005,-0.021,2.289,5.127,0.427,80.000,8750.000,1.000
13.852,10.349,13.232,8.865,8.615,6.641,7.958,2.625,-0.092,1.006,-0.016,2.197,4.883,0.427,80.000,8751.000,1.000
12.697,10.131,12.354,8.254,7.507,6.036,6.982,2.613,-0.091,1.006,-0.018,2.106,4.700,0.458,80.000,8752.000,1.000
9.646,7.455,9.789,5.560,5.710,4.316,4.943,0.807,-0.091,1.005,-0.018,2.014,4.486,0.519,80.000,8753.000,1.000
5.895,3.975,6.380,2.001,3.642,2.268,2.856,-1.491,-0.093,1.005,-0.020,1.953,4.303,0.488,80.000,8754.000,1.000
2.479,1.319,2.809,-1.061,1.456,0.344,1.342,-2.979,-0.093,1.002,-0.023,1.740,4.089,0.458,80.000,8755.000,1.000
0.014,-0.376,-0.308,-3.085,-0.484,-1.417,0.304,-3.596,-0.093,1.002,-0.024,1.709,3.937,0.458,80.000,8756.000,1.000
-1.224,-1.867,-2.316,-4.242,-1.523,-2.875,-0.495,-4.050,-0.096,1.002,-0.022,1.678,3.662,0.488,80.000,8757.000,1.000
-1.228,-3.166,-2.760,-4.589,-1.239,-3.502,-0.846,-4.430,-0.094,1.003,-0.019,1.678,3.387,0.702,80.000,8758.000,1.000
-0.393,-3.319,-1.828,-3.839,-0.029,-3.028,-0.514,-4.004,-0.094,1.004,-0.020,1.587,3.082,0.793,80.000,8759.000,1.000
0.554,-1.866,-0.290,-1.967,1.188,-2.034,0.126,-2.394,-0.093,1.003,-0.019,1.526,2.808,0.977,80.000,8760.000,1.000
1.104,0.282,1.263,0.438,2.051,-1.299,0.480,-0.222,-0.093,1.004,-0.019,1.343,2.563,1.129,80.000,8761.000,1.000
1.216,1.663,2.733,2.457,2.961,-1.018,0.416,1.491,-0.092,1.006,-0.018,1.190,2.258,1.190,80.000,8762.000,1.000
0.846,1.575,3.864,3.300,3.933,-1.095,0.066,2.175,-0.090,1.005,-0.019,1.068,2.167,1.190,80.000,8763.000,1.000
-0.359,0.479,3.862,2.625,4.012,-1.650,-0.643,1.880,-0.090,1.008,-0.016,1.099,1.953,1.099,80.000,8764.000,1.000
-2.705,-0.892,2.018,0.476,2.212,-2.959,-2.070,0.657,-0.090,1.008,-0.017,0.916,1.587,1.129,80.000,8765.000,1.000
-6.014,-2.596,-1.536,-3.063,-1.375,-5.173,-4.618,-1.983,-0.090,1.007,-0.020,0.763,1.404,0.946,80.000,8766.000,1.000
-9.510,-5.072,-5.691,-7.693,-5.515,-7.909,-8.124,-6.396,-0.089,1.006,-0.015,0.702,1.221,0.885,80.000,8767.000,1.000
-12.117,-7.766,-8.974,-12.325,-8.701,-10.078,-11.466,-11.588,-0.087,1.006,-0.017,0.671,0.916,0.854,80.000,8768.000,1.000
-13.175,-9.187,-10.544,-15.373,-10.226,-10.679,-13.313,-15.479,-0.088,1.005,-0.018,0.580,0.580,0.793,80.000,8769.000,1.000
-12.773,-8.575,-10.532,-15.914,-10.351,-9.812,-13.342,-16.677,-0.086,1.002,-0.018,0.580,0.458,0.732,80.000,8770.000,1.000
-11.222,-6.757,-9.324,-14.281,-9.455,-8.421,-12.305,-15.563,-0.085,1.003,-0.016,0.580,0.244,0.610,80.000,8771.000,1.000
-8.573,-5.072,-6.998,-11.519,-7.512,-7.126,-11.006,-13.482,-0.082,1.003,-0.018,0.519,0.061,0.580,80.000,8772.000,1.000
-4.915,-3.832,-3.720,-8.431,-4.634,-5.771,-9.585,-11.223,-0.081,1.001,-0.018,0.427,-0.092,0.458,80.000,8773.000,1.000
-0.764,-2.136,-0.157,-5.100,-1.522,-3.933,-7.680,-8.469,-0.080,1.000,-0.022,0.580,0.031,0.305,80.000,8774.000,1.000
3.217,0.897,2.979,-1.233,1.138,-1.417,-4.948,-4.636,-0.078,0.998,-0.020,0.488,-0.061,0.305,80.000,8775.000,1.000
6.804,5.048,5.705,3.129,3.538,1.821,-1.285,0.105,-0.077,0.996,-0.015,0.641,0.031,0.305,80.000,8776.000,1.000
10.316,9.389,8.725,7.447,6.611,5.950,3.382,5.006,-0.075,0.996,-0.015,0.702,0.031,0.214,80.000,8777.000,1.000
13.860,13.257,12.341,11.053,10.730,10.977,9.011,9.584,-0.076,0.996,-0.018,0.671,-0.031,0.061,80.000,8778.000,1.000
16.393,16.126,15.350,13.187,14.512,15.778,14.591,13.457,-0.073,0.995,-0.017,0.610,-0.061,0.000,80.000,8779.000,1.000
15.918,16.676,15.397,12.707,15.308,17.780,17.630,15.334,-0.074,0.998,-0.019,0.732,0.122,-0.214,80.000,8780.000,1.000
11.113,13.070,10.877,8.492,11.339,14.585,15.538,13.203,-0.074,0.998,-0.019,0.885,0.214,-0.305,80.000,8781.000,1.000
2.872,4.929,2.607,0.715,3.428,6.368,8.067,6.351,-0.073,1.000,-0.019,0.946,0.305,-0.336,80.000,8782.000,1.000
-6.001,-5.280,-6.582,-8.460,-5.586,-3.777,-2.040,-3.163,-0.072,1.002,-0.019,0.916,0.488,-0.336,80.000,8783.000,1.000
-12.692,-13.532,-13.855,-15.943,-12.981,-12.090,-11.041,-11.665,-0.074,1.003,-0.019,0.793,0.580,-0.458,80.000,8784.000,1.000
-15.909,-17.173,-17.830,-19.660,-17.432,-16.523,-16.584,-16.499,-0.074,1.006,-0.016,0.854,0.671,-0.549,80.000,8785.000,1.000
-15.884,-16.567,-18.480,-19.620,-18.723,-17.227,-18.385,-17.500,-0.072,1.008,-0.017,0.916,0.671,-0.519,80.000,8786.000,1.000
-13.609,-14.057,-16.513,-17.378,-17.267,-15.572,-17.439,-16.238,-0.068,1.006,-0.015,0.824,0.916,-0.671,80.000,8787.000,1.000
-10.373,-11.695,-13.172,-14.638,-14.219,-13.126,-15.103,-14.280,-0.067,1.004,-0.016,0.702,1.160,-0.732,80.000,8788.000,1.000
-7.609,-10.133,-10.141,-12.372,-11.418,-11.183,-12.700,-12.304,-0.067,1.002,-0.016,0.763,1.312,-0.732,80.000,8789.000,1.000
-6.452,-9.326,-8.860,-10.954,-10.441,-10.575,-11.350,-10.628,-0.067,1.002,-0.017,0.732,1.740,-0.824,80.000,8790.000,1.000
-7.122,-9.555,-9.625,-10.640,-11.540,-11.499,-11.695,-9.917,-0.067,1.002,-0.016,0.793,2.075,-0.854,80.000,8791.000,1.000
-8.797,-11.094,-11.447,-11.517,-13.589,-13.350,-13.483,-10.756,-0.069,1.005,-0.016,0.763,2.289,-0.854,80.000,8792.000,1.000
-10.253,-13.127,-12.908,-13.021,-15.111,-14.920,-15.554,-12.571,-0.069,1.005,-0.014,0.763,2.563,-0.916,80.000,8793.000,1.000
-10.722,-13.866,-13.247,-13.995,-15.362,-15.143,-16.597,-13.680,-0.068,1.005,-0.017,0.702,2.777,-0.946,80.000,8794.000,1.000
-10.161,-12.181,-12.567,-13.489,-14.374,-13.743,-16.001,-12.734,-0.070,1.003,-0.020,0.732,3.082,-0.885,80.000,8795.000,1.000
-8.842,-8.799,-11.188,-11.482,-12.259,-11.150,-13.958,-9.897,-0.071,1.003,-0.017,0.671,3.265,-0.946,80.000,8796.000,1.000
-6.921,-5.532,-9.189,-8.719,-8.994,-8.003,-10.983,-6.407,-0.071,1.001,-0.019,0.732,3.540,-0.977,80.000,8797.000,1.000
-4.439,-3.377,-6.597,-5.852,-4.912,-4.737,-7.442,-3.082,-0.074,1.000,-0.015,0.732,3.662,-1.007,80.000,8798.000,1.000
-1.661,-1.845,-3.849,-3.029,-1.023,-1.608,-3.602,0.249,-0.075,0.999,-0.015,0.763,3.906,-0.946,80.000,8799.000,1.000
0.780,-0.272,-1.821,-0.430,1.443,0.956,-0.094,3.664,-0.076,0.998,-0.015,0.793,4.059,-0.946,80.000,8800.000,1.000
2.323,0.938,-1.196,1.268,1.966,2.341,2.080,6.152,-0.077,0.998,-0.017,0.946,4.242,-1.007,80.000,8801.000,1.000
2.946,0.814,-1.893,1.320,0.996,2.147,2.186,6.298,-0.077,0.999,-0.017,1.007,4.272,-1.038,80.000,8802.000,1.000
2.906,-0.864,-3.392,-0.370,-0.886,0.322,0.138,3.765,-0.079,1.000,-0.020,1.038,4.456,-0.946,80.000,8803.000,1.000
2.259,-3.205,-5.332,-3.070,-3.628,-2.925,-3.660,-0.298,-0.081,0.998,-0.017,1.160,4.547,-0.946,80.000,8804.000,1.000
1.063,-5.085,-7.387,-5.620,-7.105,-6.948,-8.418,-4.234,-0.082,0.998,-0.016,1.312,4.700,-1.038,80.000,8805.000,1.000
-0.089,-6.102,-8.777,-7.076,-10.263,-10.520,-12.924,-7.013,-0.083,0.999,-0.016,1.526,4.761,-1.129,80.000,8806.000,1.000
-0.213,-6.489,-8.501,-7.104,-11.544,-12.260,-15.795,-8.404,-0.085,0.997,-0.017,1.526,4.791,-1.129,80.000,8807.000,1.000
1.255,-6.269,-6.276,-5.892,-10.352,-11.475,-16.119,-8.407,-0.086,0.999,-0.017,1.648,4.669,-1.221,80.000,8808.000,1.000
3.863,-5.062,-3.081,-3.899,-7.751,-8.715,-14.046,-6.983,-0.086,1.002,-0.014,1.648,4.517,-1.221,80.000,8809.000,1.000
6.460,-2.947,-0.495,-1.797,-5.446,-5.416,-10.691,-4.451,-0.088,1.004,-0.017,1.709,4.547,-1.343,80.000,8810.000,1.000
8.078,-1.055,0.517,-0.455,-4.240,-2.914,-7.457,-1.846,-0.088,1.003,-0.019,1.770,4.486,-1.312,80.000,8811.000,1.000
8.516,-0.711,0.134,-0.537,-3.742,-1.730,-5.307,-0.411,-0.088,1.004,-0.019,1.801,4.364,-1.373,80.000,8812.000,1.000
8.216,-1.915,-0.791,-1.849,-3.317,-1.576,-4.416,-0.458,-0.089,1.004,-0.017,1.862,4.211,-1.282,80.000,8813.000,1.000
7.702,-3.179,-1.532,-3.283,-2.929,-1.907,-4.371,-1.031,-0.087,1.007,-0.018,1.923,4.059,-1.312,80.000,8814.000,1.000
7.227,-3.175,-1.893,-3.743,-2.962,-2.472,-4.757,-1.044,-0.089,1.008,-0.017,1.831,4.272,-1.312,80.000,8815.000,1.000
6.906,-2.130,-1.935,-3.076,-3.418,-3.239,-5.379,-0.467,-0.088,1.007,-0.016,1.831,4.059,-1.251,80.000,8816.000,1.000
6.928,-1.172,-1.585,-1.905,-3.635,-3.833,-5.868,0.017,-0.089,1.008,-0.016,1.678,3.967,-1.190,80.000,8817.000,1.000
7.472,-0.617,-0.708,-0.682,-2.933,-3.409,-5.419,0.291,-0.088,1.009,-0.013,1.617,3.937,-1.190,80.000,8818.000,1.000
8.453,0.445,0.530,0.752,-1.365,-1.352,-3.349,1.135,-0.089,1.010,-0.016,1.373,3.906,-1.129,80.000,8819.000,1.000
9.495,2.730,1.640,2.596,0.432,1.970,0.079,3.110,-0.091,1.012,-0.017,1.312,3.784,-1.129,80.000,8820.000,1.000
10.201,5.505,2.263,4.409,2.034,5.378,3.696,5.579,-0.089,1.009,-0.015,1.160,3.693,-1.038,80.000,8821.000,1.000
10.295,7.083,2.323,5.210,3.398,7.663,6.239,7.130,-0.088,1.010,-0.014,1.007,3.632,-1.068,80.000,8822.000,1.000
9.426,6.341,1.584,4.191,4.112,8.006,6.920,6.810,-0.087,1.009,-0.014,0.732,3.448,-1.007,80.000,8823.000,1.000
7.251,3.614,-0.495,1.396,3.205,6.064,5.519,4.813,-0.087,1.008,-0.013,0.580,3.418,-1.068,80.000,8824.000,1.000
3.949,0.107,-4.026,-2.238,0.232,2.186,2.405,2.045,-0.086,1.008,-0.016,0.458,3.296,-0.946,80.000,8825.000,1.000
0.497,-3.301,-8.045,-5.514,-3.768,-2.486,-1.468,-0.753,-0.086,1.008,-0.015,0.275,3.265,-0.854,80.000,8826.000,1.000
-1.808,-6.278,-10.912,-7.566,-6.777,-6.364,-4.765,-3.213,-0.086,1.005,-0.013,0.183,3.235,-0.824,80.000,8827.000,1.000
-2.158,-8.160,-11.403,-7.862,-7.265,-8.025,-6.170,-4.729,-0.088,1.004,-0.012,0.092,3.113,-0.732,80.000,8828.000,1.000
-0.766,-7.796,-9.524,-6.155,-5.193,-6.926,-5.027,-4.368,-0.088,1.000,-0.016,0.000,2.930,-0.702,80.000,8829.000,1.000
1.285,-4.868,-6.405,-2.910,-1.755,-3.837,-1.867,-1.895,-0.089,0.998,-0.018,-0.031,2.930,-0.885,80.000,8830.000,1.000
2.904,-0.825,-3.348,0.552,1.737,-0.338,1.893,1.522,-0.089,0.998,-0.020,-0.031,2.777,-0.793,80.000,8831.000,1.000
3.772,2.182,-0.988,2.821,4.599,2.312,4.953,4.155,-0.089,0.997,-0.017,-0.092,2.716,-0.793,80.000,8832.000,1.000
4.192,3.189,0.576,3.374,6.474,3.743,6.761,5.199,-0.090,0.996,-0.017,0.000,2.594,-0.946,80.000,8833.000,1.000
4.384,2.899,1.171,2.757,6.843,4.047,7.293,5.139,-0.089,0.996,-0.015,-0.031,2.563,-0.916,80.000,8834.000,1.000
4.345,2.451,0.606,1.931,5.470,3.386,6.667,4.768,-0.089,0.997,-0.019,0.031,2.502,-1.007,80.000,8835.000,1.000
4.371,2.314,-0.584,1.593,3.311,2.320,5.347,4.352,-0.088,0.996,-0.017,-0.031,2.319,-1.007,80.000,8836.000,1.000
5.280,2.664,-0.909,2.137,2.432,2.173,4.599,4.029,-0.088,0.997,-0.017,0.031,2.258,-1.099,80.000,8837.000,1.000
7.679,4.204,1.078,3.915,4.480,4.419,6.104,4.570,-0.089,0.998,-0.016,0.000,2.258,-1.068,80.000,8838.000,1.000
10.994,7.552,5.258,6.917,8.976,9.055,10.324,6.764,-0.088,1.002,-0.013,-0.061,2.197,-1.190,80.000,8839.000,1.000
13.553,11.631,9.513,10.029,13.262,13.684,15.205,9.834,-0.090,1.004,-0.013,-0.122,2.075,-1.190,80.000,8840.000,1.000
13.928,13.755,11.390,11.374,14.708,15.169,17.483,11.481,-0.088,1.007,-0.014,-0.122,2.075,-1.282,80.000,8841.000,1.000
12.091,12.093,10.298,9.961,13.012,12.490,15.667,10.129,-0.087,1.006,-0.013,-0.183,2.075,-1.129,80.000,8842.000,1.000
9.137,7.587,7.623,6.671,9.909,7.445,11.217,6.618,-0.087,1.007,-0.010,-0.214,2.014,-1.160,80.000,8843.000,1.000
6.180,3.053,4.996,3.424,7.077,2.730,6.873,3.313,-0.085,1.006,-0.008,-0.305,1.984,-1.099,80.000,8844.000,1.000
3.775,0.606,3.114,1.622,5.068,-0.096,4.403,1.842,-0.083,1.005,-0.010,-0.275,2.136,-1.099,80.000,8845.000,1.000
2.130,0.129,2.045,1.335,3.871,-1.041,3.809,1.807,-0.084,1.003,-0.011,-0.336,2.106,-1.068,80.000,8846.000,1.000
1.349,0.137,1.820,1.680,3.512,-0.854,4.101,1.617,-0.084,1.001,-0.007,-0.244,2.197,-0.946,80.000,8847.000,1.000
1.355,-0.215,2.420,1.891,3.870,-0.111,4.467,0.417,-0.084,0.999,-0.008,-0.275,2.258,-0.885,80.000,8848.000,1.000
1.788,-0.357,3.479,1.967,4.425,0.989,4.721,-1.089,-0.086,1.002,-0.010,-0.183,2.319,-0.702,80.000,8849.000,1.000
2.201,0.493,4.411,2.293,4.610,2.255,4.916,-1.751,-0.087,1.002,-0.011,-0.153,2.350,-0.641,80.000,8850.000,1.000
2.436,1.985,4.944,2.906,4.418,3.321,4.951,-1.412,-0.085,1.001,-0.013,-0.153,2.380,-0.610,80.000,8851.000,1.000
2.708,2.989,5.362,3.453,4.422,3.963,4.778,-0.841,-0.085,1.000,-0.009,0.000,2.441,-0.519,80.000,8852.000,1.000
3.270,3.063,6.063,3.806,5.059,4.384,4.764,-0.445,-0.085,1.001,-0.012,0.153,2.411,-0.549,80.000,8853.000,1.000
4.048,2.989,6.993,4.410,6.098,5.036,5.556,0.389,-0.085,1.004,-0.010,0.244,2.533,-0.458,80.000,8854.000,1.000
4.624,3.616,7.655,5.725,6.956,6.178,7.435,2.346,-0.086,1.005,-0.010,0.183,2.563,-0.458,80.000,8855.000,1.000
4.557,4.608,7.621,7.389,7.400,7.588,9.869,4.964,-0.085,1.003,-0.010,0.275,2.594,-0.519,80.000,8856.000,1.000
3.789,4.868,6.939,8.364,7.698,8.769,11.910,6.913,-0.085,1.004,-0.009,0.153,2.625,-0.458,80.000,8857.000,1.000
2.729,4.092,5.997,8.043,8.065,9.384,13.001,7.480,-0.084,1.005,-0.011,0.244,2.655,-0.397,80.000,8858.000,1.000
1.849,3.212,5.071,6.909,8.168,9.317,13.125,7.201,-0.085,1.004,-0.012,0.305,2.747,-0.397,80.000,8859.000,1.000
1.296,3.081,4.142,5.836,7.388,8.348,12.255,6.796,-0.086,1.001,-0.007,0.458,2.747,-0.244,80.000,8860.000,1.000
0.969,3.255,3.209,5.038,5.610,6.173,10.187,6.026,-0.084,1.000,-0.008,0.488,2.747,-0.336,80.000,8861.000,1.000
0.847,2.602,2.526,4.077,3.482,2.881,7.066,4.123,-0.085,1.003,-0.008,0.610,2.869,-0.366,80.000,8862.000,1.000
0.938,0.835,2.262,2.703,1.706,-0.845,3.701,1.096,-0.084,1.002,-0.006,0.519,2.838,-0.397,80.000,8863.000,1.000
0.867,-1.207,1.940,1.206,0.186,-4.253,0.944,-1.990,-0.083,1.003,-0.008,0.488,2.899,-0.366,80.000,8864.000,1.000
-0.122,-2.898,0.584,-0.159,-1.832,-7.194,-1.179,-4.223,-0.085,1.002,-0.009,0.671,2.930,-0.366,80.000,8865.000,1.000
-2.389,-4.691,-2.264,-1.598,-4.649,-9.867,-3.254,-5.785,-0.086,1.002,-0.009,0.732,2.838,-0.427,80.000,8866.000,1.000
-5.244,-7.247,-5.821,-3.362,-7.472,-11.980,-5.393,-7.327,-0.085,1.000,-0.006,0.641,2.991,-0.488,80.000,8867.000,1.000
-7.512,-10.181,-8.761,-5.236,-9.320,-12.770,-6.965,-8.892,-0.085,1.000,-0.006,0.671,2.930,-0.458,80.000,8868.000,1.000
-8.674,-12.253,-10.520,-6.718,-10.225,-11.974,-7.505,-9.930,-0.086,0.999,-0.005,0.732,2.930,-0.488,80.000,8869.000,1.000
-9.159,-12.776,-11.519,-7.597,-10.970,-10.302,-7.365,-10.135,-0.085,0.999,-0.006,0.854,2.869,-0.458,80.000,8870.000,1.000
-9.580,-12.401,-12.186,-8.107,-11.780,-8.765,-7.213,-9.833,-0.084,0.999,-0.010,0.916,2.899,-0.488,80.000,8871.000,1.000
-9.894,-12.074,-12.139,-8.354,-11.739,-7.545,-7.021,-9.317,-0.085,1.000,-0.009,0.885,2.960,-0.549,80.000,8872.000,1.000
-9.423,-11.481,-10.571,-7.780,-9.730,-5.732,-5.864,-8.077,-0.085,0.999,-0.008,0.916,2.899,-0.519,80.000,8873.000,1.000
-7.700,-9.335,-7.469,-5.670,-5.903,-2.516,-3.038,-5.286,-0.086,1.000,-0.008,1.007,2.838,-0.458,80.000,8874.000,1.000
-5.168,-5.400,-4.095,-2.272,-1.910,1.471,0.732,-1.235,-0.087,1.001,-0.009,1.160,2.838,-0.458,80.000,8875.000,1.000
-2.866,-1.463,-1.977,0.979,0.504,4.471,3.623,2.266,-0.088,1.000,-0.010,1.129,2.716,-0.488,80.000,8876.000,1.000
-1.488,0.275,-1.599,2.629,0.891,5.253,4.297,3.376,-0.089,1.000,-0.009,1.312,2.655,-0.427,80.000,8877.000,1.000
-1.017,-0.596,-2.401,2.460,-0.053,4.022,2.898,1.980,-0.089,1.000,-0.008,1.373,2.655,-0.427,80.000,8878.000,1.000
-1.324,-2.645,-3.878,1.346,-1.706,1.718,0.458,-0.414,-0.088,0.999,-0.009,1.343,2.655,-0.427,80.000,8879.000,1.000
-2.577,-4.490,-6.041,0.091,-3.997,-0.999,-2.241,-2.364,-0.088,0.998,-0.010,1.495,2.563,-0.397,80.000,8880.000,1.000
-4.742,-6.077,-8.701,-1.183,-6.696,-3.836,-4.917,-3.669,-0.089,0.996,-0.009,1.648,2.380,-0.488,80.000,8881.000,1.000
-7.136,-8.030,-10.984,-2.659,-8.986,-6.438,-7.326,-4.914,-0.089,0.995,-0.012,1.801,2.289,-0.458,80.000,8882.000,1.000
-8.857,-10.208,-11.958,-4.181,-10.157,-8.264,-9.020,-6.264,-0.089,0.998,-0.011,1.953,2.228,-0.458,80.000,8883.000,1.000
-9.499,-11.384,-11.483,-5.150,-10.348,-8.886,-9.595,-7.078,-0.088,0.998,-0.011,2.075,2.228,-0.641,80.000,8884.000,1.000
-9.321,-10.583,-10.231,-5.128,-10.219,-8.366,-9.118,-6.832,-0.089,0.997,-0.014,2.075,2.228,-0.549,80.000,8885.000,1.000
-8.843,-8.399,-8.975,-4.468,-10.073,-7.257,-8.196,-6.053,-0.089,0.998,-0.013,2.106,2.167,-0.488,80.000,8886.000,1.000
-8.323,-6.422,-7.956,-4.025,-9.575,-6.081,-7.443,-5.834,-0.087,0.999,-0.017,2.197,2.136,-0.427,80.000,8887.000,1.000
-7.566,-5.368,-6.892,-4.082,-8.281,-4.808,-6.821,-6.382,-0.086,1.001,-0.015,2.258,2.014,-0.336,80.000,8888.000,1.000
-6.307,-4.420,-5.504,-3.916,-6.276,-3.079,-5.775,-6.598,-0.088,1.003,-0.016,2.228,2.045,-0.336,80.000,8889.000,1.000
-4.740,-2.701,-3.928,-2.760,-4.209,-1.008,-4.139,-5.448,-0.087,1.004,-0.013,2.319,1.923,-0.275,80.000,8890.000,1.000
-3.385,-0.695,-2.489,-0.870,-2.634,0.726,-2.494,-3.328,-0.086,1.006,-0.012,2.258,1.953,-0.244,80.000,8891.000,1.000
-2.410,0.424,-1.203,0.770,-1.455,1.718,-1.436,-1.574,-0.085,1.009,-0.010,2.197,2.014,-0.336,80.000,8892.000,1.000
-1.440,0.516,0.151,1.583,-0.268,2.320,-0.887,-0.847,-0.083,1.010,-0.012,1.953,1.923,-0.214,80.000,8893.000,1.000
-0.164,0.731,1.527,1.878,0.889,3.059,-0.376,-0.530,-0.084,1.008,-0.013,1.831,2.136,-0.244,80.000,8894.000,1.000
1.135,1.895,2.488,2.181,1.502,3.862,0.200,0.210,-0.083,1.008,-0.013,1.709,2.197,-0.336,80.000,8895.000,1.000
1.823,3.237,2.711,2.469,1.327,4.117,0.412,1.198,-0.083,1.007,-0.014,1.648,2.167,-0.427,80.000,8896.000,1.000
1.531,3.242,2.368,2.265,0.761,3.450,-0.132,1.481,-0.082,1.009,-0.015,1.556,2.228,-0.336,80.000,8897.000,1.000
0.373,1.535,1.832,1.392,0.260,2.182,-1.291,0.621,-0.081,1.008,-0.014,1.465,2.319,-0.305,80.000,8898.000,1.000
-1.257,-0.588,1.176,0.346,-0.283,0.929,-2.564,-0.687,-0.082,1.006,-0.013,1.373,2.411,-0.488,80.000,8899.000,1.000
-2.831,-1.580,0.275,-0.168,-1.211,-0.022,-3.591,-1.452,-0.082,1.006,-0.012,1.343,2.472,-0.397,80.000,8900.000,1.000
-3.726,-1.167,-0.657,0.042,-2.309,-0.755,-4.303,-1.508,-0.082,1.008,-0.017,1.190,2.594,-0.336,80.000,8901.000,1.000
-3.420,-0.194,-0.997,0.537,-2.781,-1.291,-4.662,-1.484,-0.083,1.006,-0.017,1.190,2.716,-0.275,80.000,8902.000,1.000
-1.903,0.696,-0.353,0.840,-2.203,-1.433,-4.558,-1.808,-0.084,1.006,-0.016,1.129,2.869,-0.336,80.000,8903.000,1.000
0.071,1.625,0.835,0.870,-1.256,-1.200,-4.117,-2.234,-0.081,1.004,-0.016,1.099,2.869,-0.397,80.000,8904.000,1.000
1.409,2.747,1.652,0.745,-1.062,-1.057,-3.878,-2.437,-0.083,1.005,-0.013,1.099,2.960,-0.397,80.000,8905.000,1.000
1.739,3.694,1.871,0.612,-1.697,-1.266,-4.182,-2.505,-0.085,1.005,-0.016,1.221,3.052,-0.427,80.000,8906.000,1.000
1.926,4.129,2.405,0.792,-1.889,-1.279,-4.534,-2.556,-0.085,1.003,-0.015,1.160,3.174,-0.519,80.000,8907.000,1.000
3.141,4.425,4.187,1.728,-0.586,-0.307,-4.060,-2.294,-0.086,1.002,-0.011,1.190,3.265,-0.519,80.000,8908.000,1.000
5.552,5.396,6.931,3.629,1.698,1.693,-2.496,-1.234,-0.086,1.000,-0.010,1.099,3.265,-0.549,80.000,8909.000,1.000
8.150,7.205,9.351,6.084,3.474,3.810,-0.532,0.586,-0.087,0.999,-0.011,1.160,3.326,-0.641,80.000,8910.000,1.000
9.688,8.700,10.337,8.015,3.818,4.797,0.699,2.212,-0.085,0.998,-0.013,1.251,3.479,-0.610,80.000,8911.000,1.000
9.664,8.367,9.720,8.323,3.034,4.049,0.554,2.505,-0.085,0.999,-0.013,1.373,3.387,-0.641,80.000,8912.000,1.000
8.503,6.116,8.109,6.891,2.019,2.215,-0.487,1.441,-0.085,0.999,-0.019,1.282,3.418,-0.641,80.000,8913.000,1.000
6.951,3.624,6.246,4.814,1.317,0.753,-1.226,0.335,-0.086,1.001,-0.016,1.282,3.448,-0.580,80.000,8914.000,1.000
5.357,2.502,4.518,3.336,0.824,0.624,-0.947,0.357,-0.085,1.002,-0.010,1.343,3.448,-0.549,80.000,8915.000,1.000
3.570,2.449,2.942,2.576,0.206,1.402,-0.208,1.041,-0.087,1.003,-0.014,1.312,3.540,-0.610,80.000,8916.000,1.000
1.513,1.937,1.536,1.726,-0.542,1.928,-0.137,0.856,-0.085,1.004,-0.016,1.343,3.510,-0.641,80.000,8917.000,1.000
-0.398,0.441,0.515,0.367,-1.094,1.668,-1.065,-0.779,-0.086,1.003,-0.013,1.404,3.601,-0.580,80.000,8918.000,1.000
-1.678,-0.917,-0.043,-0.988,-1.385,0.968,-2.331,-2.770,-0.086,1.003,-0.014,1.343,3.601,-0.397,80.000,8919.000,1.000
-2.270,-0.975,-0.359,-1.637,-1.765,0.261,-3.237,-3.733,-0.087,1.001,-0.016,1.434,3.723,-0.397,80.000,8920.000,1.000
-2.311,0.010,-0.513,-1.463,-2.324,-0.335,-3.621,-3.464,-0.087,1.003,-0.014,1.404,3.723,-0.275,80.000,8921.000,1.000
-1.755,0.803,-0.189,-0.872,-2.577,-0.825,-3.598,-2.755,-0.090,1.000,-0.017,1.465,3.754,-0.214,80.000,8922.000,1.000
-0.592,0.713,0.803,-0.214,-2.173,-1.197,-3.229,-2.161,-0.091,1.000,-0.014,1.465,3.662,-0.122,80.000,8923.000,1.000
0.757,0.216,1.974,0.530,-1.577,-1.532,-2.598,-1.430,-0.091,0.998,-0.015,1.495,3.601,-0.092,80.000,8924.000,1.000
1.644,0.058,2.488,1.488,-1.586,-1.999,-1.992,-0.234,-0.093,0.999,-0.014,1.526,3.601,-0.061,80.000,8925.000,1.000
1.858,0.205,2.075,2.489,-2.234,-2.559,-1.735,0.957,-0.092,0.998,-0.016,1.617,3.571,-0.153,80.000,8926.000,1.000
1.853,0.095,1.358,3.077,-2.647,-2.777,-1.836,1.150,-0.092,0.998,-0.016,1.678,3.540,0.000,80.000,8927.000,1.000
2.215,-0.294,1.148,2.975,-2.151,-2.117,-1.936,-0.044,-0.092,0.997,-0.017,1.831,3.540,0.092,80.000,8928.000,1.000
3.014,-0.149,1.618,2.452,-1.100,-0.490,-1.665,-1.864,-0.092,0.998,-0.018,1.953,3.448,0.275,80.000,8929.000,1.000
3.810,1.156,2.349,2.094,-0.341,1.570,-1.005,-3.175,-0.095,1.000,-0.017,1.984,3.418,0.122,80.000,8930.000,1.000
4.265,3.135,3.065,2.266,-0.057,3.350,-0.231,-3.562,-0.093,1.001,-0.017,1.953,3.296,0.183,80.000,8931.000,1.000
4.567,4.673,3.999,2.884,0.417,4.533,0.482,-3.405,-0.092,1.004,-0.017,1.984,3.204,0.183,80.000,8932.000,1.000
5.015,5.263,5.357,3.640,1.526,5.147,1.172,-3.051,-0.091,1.003,-0.015,1.953,3.052,0.336,80.000,8933.000,1.000
5.418,5.363,6.686,4.285,2.636,5.102,1.782,-2.378,-0.089,1.003,-0.018,1.953,3.052,0.275,80.000,8934.000,1.000
5.217,5.477,7.150,4.623,2.658,4.138,1.966,-1.310,-0.089,1.005,-0.018,1.923,2.960,0.183,80.000,8935.000,1.000
4.179,5.254,6.422,4.364,1.372,2.267,1.370,-0.390,-0.088,1.003,-0.016,1.923,2.991,0.214,80.000,8936.000,1.000
2.833,4.023,5.142,3.348,-0.225,0.134,0.133,-0.376,-0.088,1.003,-0.016,1.892,2.777,0.336,80.000,8937.000,1.000
2.137,2.179,4.405,1.999,-0.898,-1.176,-0.956,-1.186,-0.089,1.003,-0.019,1.801,2.838,0.397,80.000,8938.000,1.000
2.683,1.382,4.856,1.284,-0.225,-0.809,-0.918,-1.629,-0.085,1.001,-0.021,1.831,2.777,0.336,80.000,8939.000,1.000
4.239,2.928,6.302,1.920,1.372,1.201,0.613,-0.553,-0.086,1.002,-0.018,1.709,2.869,0.336,80.000,8940.000,1.000
6.007,6.162,8.055,3.624,3.297,3.885,2.987,1.790,-0.086,1.004,-0.018,1.495,2.838,0.519,80.000,8941.000,1.000
7.287,9.064,9.520,5.363,5.219,6.103,5.082,4.000,-0.085,1.005,-0.017,1.465,2.808,0.519,80.000,8942.000,1.000
7.884,10.393,10.466,6.427,6.962,7.400,6.330,5.217,-0.084,1.004,-0.020,1.526,2.747,0.580,80.000,8943.000,1.000
7.958,10.639,10.851,7.005,8.187,8.005,6.962,5.969,-0.085,1.005,-0.018,1.434,2.655,0.397,80.000,8944.000,1.000
7.659,10.760,10.644,7.562,8.474,8.174,7.298,7.049,-0.084,1.003,-0.017,1.373,2.655,0.336,80.000,8945.000,1.000
7.113,10.685,9.997,7.980,7.854,7.941,7.244,8.122,-0.084,1.002,-0.018,1.373,2.747,0.275,80.000,8946.000,1.000
6.600,9.596,9.353,7.684,7.002,7.450,6.664,8.062,-0.084,1.004,-0.019,1.221,2.686,0.336,80.000,8947.000,1.000
6.376,7.382,9.093,6.473,6.611,7.170,5.843,6.458,-0.084,1.006,-0.020,1.129,2.716,0.305,80.000,8948.000,1.000
6.257,5.170,9.052,4.870,6.677,7.542,5.301,4.200,-0.083,1.002,-0.019,1.007,2.747,0.183,80.000,8949.000,1.000
5.684,4.149,8.662,3.554,6.663,8.504,5.252,2.476,-0.083,1.004,-0.016,0.885,2.808,0.122,80.000,8950.000,1.000
4.335,4.202,7.657,2.657,6.348,9.498,5.473,1.579,-0.082,1.003,-0.018,0.916,2.686,0.153,80.000,8951.000,1.000
2.481,4.152,6.386,1.774,6.107,9.930,5.639,0.989,-0.081,1.003,-0.017,0.854,2.686,0.031,80.000,8952.000,1.000
0.717,3.319,5.370,0.710,6.300,9.649,5.742,0.494,-0.083,1.002,-0.017,0.763,2.686,0.000,80.000,8953.000,1.000
-0.583,2.300,4.655,-0.096,6.640,8.917,6.054,0.726,-0.084,1.001,-0.018,0.549,2.716,-0.031,80.000,8954.000,1.000
-1.575,1.848,3.742,-0.181,6.411,7.866,6.609,2.212,-0.082,1.001,-0.020,0.641,2.747,-0.061,80.000,8955.000,1.000
-2.675,1.560,2.242,0.190,5.301,6.294,6.953,4.306,-0.082,1.001,-0.019,0.641,2.686,-0.153,80.000,8956.000,1.000
-3.973,0.414,0.505,0.335,3.880,4.257,6.722,5.699,-0.082,1.003,-0.019,0.580,2.686,-0.214,80.000,8957.000,1.000
-5.061,-1.540,-0.603,0.126,3.120,2.546,6.288,5.977,-0.080,1.005,-0.017,0.458,2.594,-0.275,80.000,8958.000,1.000
-5.568,-2.889,-0.636,0.177,3.440,2.087,6.402,6.030,-0.082,1.004,-0.015,0.336,2.655,-0.397,80.000,8959.000,1.000
-5.697,-2.551,-0.061,0.934,4.370,2.929,7.194,6.696,-0.081,1.003,-0.016,0.244,2.747,-0.305,80.000,8960.000,1.000
-5.931,-1.113,0.406,1.998,5.278,4.249,7.970,7.587,-0.081,1.003,-0.016,0.061,2.594,-0.397,80.000,8961.000,1.000
-6.388,-0.055,0.637,2.531,6.059,5.270,8.047,7.667,-0.083,1.002,-0.013,0.031,2.747,-0.458,80.000,8962.000,1.000
-6.786,0.045,0.956,2.177,6.850,5.855,7.495,6.702,-0.083,1.002,-0.014,0.000,2.716,-0.397,80.000,8963.000,1.000
-6.963,0.010,1.387,1.371,7.393,6.210,6.920,5.640,-0.085,1.003,-0.015,0.000,2.869,-0.366,80.000,8964.000,1.000
-7.196,0.617,1.389,0.652,7.062,6.218,6.609,5.362,-0.085,1.002,-0.016,0.000,2.808,-0.366,80.000,8965.000,1.000
-7.858,1.264,0.492,-0.051,5.660,5.421,6.269,5.555,-0.083,1.001,-0.016,-0.092,2.777,-0.488,80.000,8966.000,1.000
-8.821,0.699,-1.047,-1.216,3.875,3.761,5.644,5.214,-0.083,0.999,-0.015,-0.092,2.838,-0.519,80.000,8967.000,1.000
-9.545,-1.291,-2.579,-3.017,2.523,1.852,4.907,3.878,-0.082,0.999,-0.016,0.000,2.838,-0.458,80.000,8968.000,1.000
-9.713,-3.445,-3.823,-5.047,1.602,0.378,4.319,2.018,-0.084,1.000,-0.015,0.061,2.838,-0.488,80.000,8969.000,1.000
-9.365,-4.305,-4.842,-6.606,0.587,-0.440,3.865,0.365,-0.085,1.000,-0.013,-0.031,2.716,-0.549,80.000,8970.000,1.000
-8.373,-3.565,-5.354,-7.128,-0.443,-0.707,3.431,-0.769,-0.086,1.001,-0.013,0.000,2.686,-0.610,80.000,8971.000,1.000
-6.224,-1.938,-4.568,-6.326,-0.521,-0.438,3.183,-1.370,-0.086,1.001,-0.014,0.031,2.686,-0.549,80.000,8972.000,1.000
-2.645,0.033,-1.999,-4.148,1.105,0.468,3.530,-1.182,-0.086,1.000,-0.013,0.061,2.747,-0.519,80.000,8973.000,1.000
1.710,2.514,1.744,-0.813,3.957,1.888,4.676,0.300,-0.084,1.002,-0.014,0.031,2.686,-0.488,80.000,8974.000,1.000
5.566,5.658,5.343,3.071,6.813,3.410,6.365,3.118,-0.086,1.002,-0.011,0.092,2.686,-0.366,80.000,8975.000,1.000
8.132,8.839,8.000,6.613,9.044,4.704,8.140,6.375,-0.087,1.000,-0.011,0.153,2.533,-0.427,80.000,8976.000,1.000
9.631,11.039,9.967,9.032,10.992,5.835,9.734,8.771,-0.085,1.002,-0.013,0.122,2.502,-0.580,80.000,8977.000,1.000
10.634,11.887,11.756,10.027,12.943,7.051,11.089,9.669,-0.085,1.001,-0.011,0.153,2.594,-0.397,80.000,8978.000,1.000
11.211,11.948,13.187,9.850,14.250,8.268,12.059,9.477,-0.084,1.003,-0.008,0.305,2.594,-0.305,80.000,8979.000,1.000
10.888,11.756,13.477,8.926,13.853,8.861,12.187,8.856,-0.083,1.005,-0.009,0.275,2.625,-0.336,80.000,8980.000,1.000
9.371,10.964,12.219,7.452,11.594,8.214,10.976,7.845,-0.082,1.002,-0.009,0.336,2.686,-0.305,80.000,8981.000,1.000
7.188,9.017,10.139,5.604,8.721,6.592,8.582,6.184,-0.083,1.004,-0.011,0.305,2.716,-0.275,80.000,8982.000,1.000
5.395,6.417,8.573,3.933,6.791,5.116,5.951,4.221,-0.083,1.002,-0.013,0.305,2.686,-0.153,80.000,8983.000,1.000
4.579,4.605,8.123,3.110,6.140,4.625,3.962,2.874,-0.084,1.003,-0.012,0.244,2.502,0.000,80.000,8984.000,1.000
4.421,4.431,8.197,3.240,5.855,4.819,2.644,2.603,-0.083,1.004,-0.012,0.305,2.686,0.153,80.000,8985.000,1.000
4.314,5.213,8.020,3.744,5.244,4.812,1.538,2.868,-0.083,1.002,-0.014,0.244,2.655,0.122,80.000,8986.000,1.000
4.148,5.648,7.690,4.020,4.755,4.343,0.627,2.902,-0.082,1.000,-0.013,0.305,2.777,0.214,80.000,8987.000,1.000
4.320,5.465,7.957,4.156,5.260,4.134,0.580,2.816,-0.083,1.002,-0.016,0.397,2.716,0.214,80.000,8988.000,1.000
5.070,5.704,9.171,4.845,6.859,5.021,2.037,3.592,-0.083,1.000,-0.012,0.427,2.747,0.275,80.000,8989.000,1.000
5.994,7.163,10.738,6.430,8.693,6.907,4.695,5.765,-0.085,1.001,-0.012,0.549,2.777,0.275,80.000,8990.000,1.000
6.343,9.023,11.675,8.187,9.840,8.752,7.301,8.370,-0.085,1.002,-0.009,0.458,2.777,0.214,80.000,8991.000,1.000
5.753,9.581,11.505,8.872,10.112,9.614,8.698,9.734,-0.085,0.999,-0.012,0.549,2.686,0.305,80.000,8992.000,1.000
4.479,8.137,10.371,7.934,9.770,9.381,8.695,9.211,-0.085,1.000,-0.012,0.610,2.716,0.305,80.000,8993.000,1.000
3.016,5.671,8.558,5.991,8.782,8.476,7.818,7.702,-0.083,0.999,-0.010,0.580,2.655,0.275,80.000,8994.000,1.000
1.719,3.618,6.315,4.113,6.909,7.211,6.485,6.467,-0.082,1.001,-0.012,0.702,2.533,0.305,80.000,8995.000,1.000
0.780,2.359,4.078,2.816,4.405,5.598,4.701,5.784,-0.082,1.002,-0.013,0.671,2.594,0.336,80.000,8996.000,1.000
0.358,1.277,2.465,1.860,2.116,3.670,2.460,5.052,-0.082,1.004,-0.012,0.671,2.594,0.244,80.000,8997.000,1.000
0.506,0.065,1.850,0.903,0.718,1.744,0.183,3.971,-0.082,1.004,-0.012,0.702,2.594,0.275,80.000,8998.000,1.000
0.937,-0.664,1.980,0.068,0.057,0.189,-1.489,3.119,-0.081,1.004,-0.012,0.702,2.655,0.244,80.000,8999.000,1.000
1.062,-0.349,2.122,-0.323,-0.551,-1.008,-2.332,3.126,-0.079,1.004,-0.011,0.641,2.716,0.153,80.000,9000.000,1.000
0.412,0.384,1.679,-0.396,-1.464,-2.203,-2.781,3.620,-0.079,1.003,-0.012,0.458,2.716,0.244,80.000,9001.000,1.000
-0.987,0.166,0.629,-0.751,-2.399,-3.587,-3.398,3.463,-0.079,1.003,-0.013,0.458,2.747,0.183,80.000,9002.000,1.000
-2.717,-1.506,-0.674,-1.755,-3.026,-4.945,-4.276,2.051,-0.077,1.004,-0.009,0.488,2.808,0.214,80.000,9003.000,1.000
-4.477,-3.671,-2.081,-3.101,-3.591,-5.998,-5.128,-0.023,-0.078,1.002,-0.012,0.580,2.869,0.092,80.000,9004.000,1.000
-6.334,-5.194,-3.833,-4.230,-4.650,-6.795,-5.794,-1.765,-0.078,1.004,-0.013,0.488,2.899,-0.061,80.000,9005.000,1.000
-8.395,-6.213,-6.075,-5.014,-6.288,-7.647,-6.467,-2.937,-0.079,1.003,-0.011,0.458,2.991,-0.122,80.000,9006.000,1.000
-10.399,-7.771,-8.428,-5.802,-7.938,-8.793,-7.475,-4.113,-0.078,1.004,-0.011,0.427,3.021,-0.122,80.000,9007.000,1.000
-11.716,-10.108,-10.169,-6.708,-9.010,-10.146,-8.888,-5.574,-0.079,1.002,-0.013,0.397,3.113,-0.183,80.000,9008.000,1.000
-11.711,-11.834,-10.724,-7.092,-9.352,-11.199,-10.240,-6.534,-0.079,1.002,-0.011,0.427,3.204,-0.153,80.000,9009.000,1.000
-10.198,-11.289,-9.979,-6.142,-9.066,-11.312,-10.808,-5.934,-0.080,1.000,-0.012,0.458,3.143,-0.153,80.000,9010.000,1.000
-7.627,-8.498,-8.225,-3.955,-8.138,-10.243,-10.253,-3.853,-0.080,1.001,-0.010,0.519,3.174,-0.214,80.000,9011.000,1.000
-4.673,-5.046,-5.793,-1.502,-6.345,-8.164,-8.685,-1.465,-0.080,1.001,-0.011,0.397,3.204,-0.214,80.000,9012.000,1.000
-1.624,-1.972,-2.785,0.586,-3.510,-5.141,-6.122,0.471,-0.080,1.000,-0.009,0.427,3.113,-0.336,80.000,9013.000,1.000
1.604,1.274,0.684,2.624,0.032,-1.106,-2.468,2.349,-0.079,1.002,-0.010,0.610,3.052,-0.244,80.000,9014.000,1.000
4.805,5.294,4.049,4.947,3.260,3.387,1.716,4.542,-0.080,1.001,-0.008,0.641,3.174,-0.397,80.000,9015.000,1.000
7.109,8.866,6.286,6.784,4.940,6.797,4.873,6.068,-0.083,1.000,-0.010,0.702,2.991,-0.427,80.000,9016.000,1.000
7.374,9.468,6.379,6.536,4.292,7.407,5.311,5.108,-0.083,1.003,-0.012,0.702,3.021,-0.549,80.000,9017.000,1.000
4.878,5.728,3.755,3.260,1.177,4.451,2.445,0.923,-0.083,0.999,-0.014,0.854,2.869,-0.671,80.000,9018.000,1.000
-0.292,-1.221,-1.568,-2.406,-4.142,-1.611,-2.952,-5.202,-0.082,0.997,-0.011,0.946,2.899,-0.580,80.000,9019.000,1.000
-7.182,-8.936,-8.836,-8.751,-10.937,-9.571,-9.456,-11.043,-0.082,0.998,-0.011,0.946,2.838,-0.610,80.000,9020.000,1.000
-14.072,-15.575,-16.353,-14.065,-17.593,-17.747,-15.556,-15.055,-0.081,0.999,-0.012,1.129,2.869,-0.671,80.000,9021.000,1.000
-18.958,-20.344,-21.866,-17.235,-21.909,-24.050,-19.747,-16.807,-0.082,0.998,-0.010,1.221,2.808,-0.610,80.000,9022.000,1.000
-20.481,-22.673,-23.742,-17.741,-22.451,-26.626,-20.844,-16.338,-0.082,0.998,-0.008,1.373,2.808,-0.549,80.000,9023.000,1.000
-18.633,-21.879,-21.976,-15.583,-19.622,-24.912,-18.621,-13.706,-0.082,0.996,-0.008,1.373,2.686,-0.488,80.000,9024.000,1.000
-14.669,-18.073,-18.075,-11.502,-15.235,-20.077,-14.183,-9.444,-0.082,0.995,-0.011,1.434,2.655,-0.549,80.000,9025.000,1.000
-10.278,-12.927,-13.918,-7.064,-11.070,-14.304,-9.420,-5.026,-0.081,0.996,-0.012,1.526,2.625,-0.397,80.000,9026.000,1.000
-6.663,-8.739,-10.639,-3.973,-7.874,-9.343,-5.788,-2.177,-0.083,0.994,-0.010,1.587,2.625,-0.610,80.000,9027.000,1.000
-4.245,-6.570,-8.481,-3.002,-5.648,-5.688,-3.582,-1.547,-0.083,0.994,-0.012,1.709,2.502,-0.610,80.000,9028.000,1.000
-3.166,-5.793,-7.557,-3.771,-4.581,-3.163,-2.495,-2.451,-0.082,0.995,-0.013,1.709,2.472,-0.458,80.000,9029.000,1.000
-3.701,-5.568,-8.269,-5.529,-5.210,-1.932,-2.541,-3.962,-0.083,0.996,-0.017,1.892,2.502,-0.610,80.000,9030.000,1.000
-5.853,-6.114,-10.686,-7.802,-7.482,-2.415,-3.968,-5.799,-0.083,1.002,-0.014,1.862,2.472,-0.549,80.000,9031.000,1.000
-8.766,-8.066,-13.884,-10.240,-10.193,-4.374,-6.417,-7.995,-0.083,1.001,-0.015,1.862,2.441,-0.580,80.000,9032.000,1.000
-11.013,-10.939,-16.379,-12.183,-11.842,-6.632,-8.681,-10.019,-0.082,1.004,-0.014,1.801,2.380,-0.610,80.000,9033.000,1.000
-11.614,-12.956,-17.229,-12.732,-11.881,-7.947,-9.559,-10.707,-0.080,1.005,-0.014,1.740,2.380,-0.549,80.000,9034.000,1.000
-10.667,-12.720,-16.541,-11.439,-10.828,-7.981,-8.809,-9.309,-0.078,1.006,-0.016,1.770,2.289,-0.488,80.000,9035.000,1.000
-8.887,-10.592,-14.870,-8.799,-9.204,-7.117,-7.008,-6.345,-0.081,1.005,-0.013,1.678,2.411,-0.427,80.000,9036.000,1.000
-6.709,-7.970,-12.389,-5.832,-6.799,-5.534,-4.609,-3.049,-0.080,1.002,-0.013,1.587,2.380,-0.366,80.000,9037.000,1.000
-4.094,-5.521,-8.965,-3.223,-3.297,-2.941,-1.525,-0.151,-0.080,1.001,-0.017,1.617,2.350,-0.366,80.000,9038.000,1.000
-1.155,-2.777,-4.985,-1.077,0.653,0.667,2.248,2.389,-0.079,1.003,-0.019,1.709,2.441,-0.305,80.000,9039.000,1.000
1.481,0.557,-1.567,0.604,3.587,4.374,5.953,4.525,-0.078,1.005,-0.020,1.709,2.533,-0.336,80.000,9040.000,1.000
3.138,3.547,0.319,1.510,4.542,6.770,8.314,5.499,-0.078,1.006,-0.020,1.648,2.472,-0.183,80.000,9041.000,1.000
3.645,4.680,0.618,1.185,3.803,6.982,8.467,4.403,-0.078,1.005,-0.018,1.587,2.441,-0.183,80.000,9042.000,1.000
3.355,3.605,0.010,-0.323,2.354,5.334,6.722,1.446,-0.079,1.006,-0.017,1.526,2.655,-0.061,80.000,9043.000,1.000
2.845,1.858,-0.722,-2.062,1.043,3.149,4.474,-1.625,-0.081,1.007,-0.016,1.587,2.777,-0.092,80.000,9044.000,1.000
2.571,1.364,-1.142,-2.822,0.277,1.731,3.086,-2.890,-0.081,1.006,-0.018,1.556,2.899,-0.153,80.000,9045.000,1.000
2.571,2.298,-1.245,-2.362,0.141,1.349,2.735,-2.115,-0.083,1.004,-0.019,1.495,2.960,-0.244,80.000,9046.000,1.000
2.504,3.036,-1.254,-1.659,0.498,1.227,2.483,-0.841,-0.083,1.004,-0.017,1.526,2.960,-0.397,80.000,9047.000,1.000
1.992,2.267,-1.437,-1.788,0.920,0.461,1.447,-0.580,-0.084,1.002,-0.016,1.434,2.869,-0.488,80.000,9048.000,1.000
0.917,0.514,-2.031,-2.819,0.774,-1.126,-0.326,-1.362,-0.084,1.004,-0.016,1.404,2.838,-0.519,80.000,9049.000,1.000
-0.458,-0.687,-3.024,-3.903,-0.231,-2.891,-2.038,-2.173,-0.084,1.006,-0.019,1.343,2.808,-0.702,80.000,9050.000,1.000
-1.530,-0.676,-3.921,-4.244,-1.547,-4.051,-2.983,-2.408,-0.084,1.007,-0.018,1.404,2.777,-0.793,80.000,9051.000,1.000
-1.707,-0.202,-4.030,-3.805,-2.208,-4.383,-3.145,-2.464,-0.085,1.007,-0.016,1.404,2.777,-0.824,80.000,9052.000,1.000
-0.831,-0.066,-3.076,-2.981,-1.756,-4.100,-2.903,-2.827,-0.083,1.006,-0.018,1.160,2.686,-0.946,80.000,9053.000,1.000
0.719,0.042,-1.500,-1.883,-0.634,-3.349,-2.458,-3.098,-0.081,1.006,-0.021,1.160,2.747,-1.007,80.000,9054.000,1.000
2.229,0.795,-0.142,-0.398,0.311,-2.221,-1.852,-2.551,-0.081,1.007,-0.013,1.038,2.808,-1.099,80.000,9055.000,1.000
3.099,1.871,0.476,1.205,0.700,-0.952,-1.256,-1.333,-0.079,1.009,-0.013,1.038,2.838,-1.068,80.000,9056.000,1.000
3.267,2.182,0.594,2.293,0.919,0.269,-0.805,-0.341,-0.081,1.009,-0.014,0.916,2.808,-0.977,80.000,9057.000,1.000
3.082,1.329,0.769,2.544,1.438,1.470,-0.308,0.027,-0.079,1.008,-0.014,0.763,2.747,-1.068,80.000,9058.000,1.000
2.654,0.100,0.998,2.193,1.993,2.591,0.473,0.328,-0.081,1.010,-0.014,0.610,2.808,-0.977,80.000,9059.000,1.000
1.640,-0.639,0.625,1.518,1.777,3.231,1.342,1.096,-0.082,1.009,-0.013,0.397,2.869,-1.038,80.000,9060.000,1.000
-0.082,-0.953,-0.654,0.508,0.594,3.098,1.885,2.014,-0.082,1.007,-0.018,0.214,2.960,-1.129,80.000,9061.000,1.000
-1.761,-1.356,-2.028,-0.782,-0.581,2.552,2.120,2.440,-0.079,1.007,-0.015,0.153,2.899,-1.007,80.000,9062.000,1.000
-2.266,-1.749,-2.270,-1.883,-0.613,2.271,2.473,2.364,-0.079,1.006,-0.014,0.153,3.082,-0.854,80.000,9063.000,1.000
-1.182,-1.304,-1.027,-2.114,0.542,2.519,3.158,2.478,-0.082,1.004,-0.010,0.061,3.113,-0.885,80.000,9064.000,1.000
0.882,0.502,0.968,-1.140,1.993,2.952,3.867,3.296,-0.081,1.002,-0.010,0.092,3.082,-0.793,80.000,9065.000,1.000
3.018,2.990,2.813,0.646,3.049,3.027,3.995,4.362,-0.082,1.000,-0.011,0.092,3.174,-0.671,80.000,9066.000,1.000
4.783,4.751,4.189,2.369,3.743,2.492,3.143,4.620,-0.085,0.997,-0.010,-0.031,3.082,-0.641,80.000,9067.000,1.000
6.168,5.098,5.202,3.418,4.315,1.615,1.589,3.719,-0.086,0.996,-0.008,0.000,3.082,-0.671,80.000,9068.000,1.000
7.124,4.772,5.849,3.934,4.685,1.008,0.223,2.672,-0.088,0.995,-0.013,0.061,3.021,-0.610,80.000,9069.000,1.000
7.450,4.976,5.955,4.514,4.683,1.172,-0.130,2.886,-0.088,0.994,-0.013,0.214,3.052,-0.610,80.000,9070.000,1.000
7.111,5.849,5.532,5.413,4.556,2.106,0.643,4.608,-0.090,0.993,-0.012,0.275,2.960,-0.641,80.000,9071.000,1.000
6.449,6.374,4.927,6.253,4.887,3.386,2.048,6.720,-0.089,0.994,-0.007,0.305,2.838,-0.610,80.000,9072.000,1.000
5.929,5.776,4.468,6.521,5.846,4.516,3.572,8.021,-0.088,0.996,-0.006,0.366,2.594,-0.671,80.000,9073.000,1.000
5.619,4.370,3.906,6.029,6.611,4.948,4.796,8.219,-0.090,0.997,-0.007,0.397,2.472,-0.671,80.000,9074.000,1.000
5.079,2.753,2.496,4.771,5.896,3.936,5.076,7.542,-0.089,0.998,-0.011,0.549,2.319,-0.793,80.000,9075.000,1.000
3.947,0.786,-0.127,2.689,3.289,0.983,3.737,5.946,-0.089,0.998,-0.011,0.641,2.228,-0.885,80.000,9076.000,1.000
2.516,-2.019,-3.299,-0.108,-0.143,-3.355,0.862,3.292,-0.090,1.000,-0.010,0.671,2.319,-0.916,80.000,9077.000,1.000
1.468,-5.297,-5.867,-3.035,-2.863,-7.502,-2.440,0.128,-0.087,1.001,-0.009,0.702,2.258,-0.824,80.000,9078.000,1.000
1.017,-7.770,-7.375,-5.301,-4.388,-10.042,-4.921,-2.370,-0.085,1.003,-0.009,0.671,2.289,-0.946,80.000,9079.000,1.000
0.612,-8.647,-8.440,-6.604,-5.496,-10.822,-6.290,-3.557,-0.084,1.004,-0.008,0.671,2.167,-0.977,80.000,9080.000,1.000
-0.353,-8.623,-9.843,-7.364,-6.938,-10.698,-7.170,-4.035,-0.084,1.006,-0.008,0.732,2.075,-0.885,80.000,9081.000,1.000
-1.821,-9.031,-11.526,-8.180,-8.418,-10.376,-8.074,-4.893,-0.084,1.008,-0.007,0.641,2.228,-0.854,80.000,9082.000,1.000
-3.236,-10.171,-12.727,-9.131,-9.119,-9.811,-8.756,-6.348,-0.082,1.007,-0.008,0.641,2.228,-0.793,80.000,9083.000,1.000
-4.248,-10.913,-12.935,-9.707,-8.833,-8.667,-8.590,-7.428,-0.083,1.005,-0.009,0.580,2.228,-0.854,80.000,9084.000,1.000
-5.026,-10.093,-12.343,-9.442,-8.068,-6.977,-7.328,-7.048,-0.083,1.005,-0.008,0.580,2.319,-0.824,80.000,9085.000,1.000
-5.935,-8.029,-11.440,-8.581,-7.218,-5.208,-5.368,-5.291,-0.082,1.002,-0.009,0.641,2.380,-0.763,80.000,9086.000,1.000
-7.156,-6.374,-10.644,-8.063,-6.303,-3.938,-3.495,-3.454,-0.084,1.002,-0.011,0.763,2.502,-0.641,80.000,9087.000,1.000
-8.656,-6.464,-10.370,-8.690,-5.529,-3.559,-2.404,-2.807,-0.086,1.001,-0.006,0.763,2.502,-0.549,80.000,9088.000,1.000
-10.241,-7.991,-10.942,-10.278,-5.477,-4.068,-2.267,-3.418,-0.087,1.003,-0.008,0.854,2.502,-0.580,80.000,9089.000,1.000
-11.536,-9.520,-12.187,-11.796,-6.446,-5.086,-2.728,-4.403,-0.086,1.003,-0.006,0.977,2.441,-0.610,80.000,9090.000,1.000
-12.131,-10.100,-13.217,-12.375,-7.798,-6.089,-3.309,-5.137,-0.087,1.003,-0.008,1.007,2.472,-0.610,80.000,9091.000,1.000
-11.837,-9.838,-12.877,-11.936,-8.253,-6.628,-3.695,-5.703,-0.087,1.002,-0.009,1.068,2.472,-0.732,80.000,9092.000,1.000
-10.850,-9.159,-10.839,-10.980,-7.258,-6.774,-3.902,-6.374,-0.087,1.002,-0.010,1.160,2.472,-0.793,80.000,9093.000,1.000
-9.759,-8.246,-8.300,-10.129,-5.957,-7.460,-4.428,-7.189,-0.087,1.003,-0.011,1.190,2.441,-0.763,80.000,9094.000,1.000
-9.226,-7.282,-7.052,-9.725,-6.097,-9.669,-5.850,-8.012,-0.086,1.001,-0.011,1.190,2.472,-0.793,80.000,9095.000,1.000
-9.421,-6.808,-7.735,-9.729,-7.997,-13.086,-8.089,-8.758,-0.085,1.003,-0.011,1.282,2.594,-0.702,80.000,9096.000,1.000
-9.816,-7.432,-9.350,-9.918,-10.218,-16.080,-10.297,-9.426,-0.086,1.002,-0.008,1.465,2.594,-0.702,80.000,9097.000,1.000
-9.718,-9.031,-10.432,-9.996,-11.186,-17.047,-11.461,-9.767,-0.085,1.001,-0.011,1.434,2.594,-0.763,80.000,9098.000,1.000
-9.016,-10.534,-10.383,-9.614,-10.666,-15.608,-11.075,-9.174,-0.084,1.002,-0.010,1.556,2.686,-0.610,80.000,9099.000,1.000
-8.232,-10.935,-9.624,-8.652,-9.583,-12.754,-9.469,-7.320,-0.083,1.001,-0.010,1.556,2.594,-0.671,80.000,9100.000,1.000
-7.795,-10.420,-8.746,-7.480,-8.740,-10.035,-7.556,-4.863,-0.083,1.000,-0.008,1.770,2.686,-0.610,80.000,9101.000,1.000
-7.548,-10.043,-7.820,-6.707,-8.035,-8.416,-6.087,-3.013,-0.083,1.003,-0.009,1.709,2.808,-0.519,80.000,9102.000,1.000
-7.042,-10.229,-6.557,-6.512,-6.931,-7.719,-5.072,-2.272,-0.085,1.001,-0.011,1.831,2.838,-0.488,80.000,9103.000,1.000
-6.046,-10.047,-4.851,-6.290,-5.346,-7.082,-4.001,-1.911,-0.086,1.003,-0.015,1.892,2.808,-0.397,80.000,9104.000,1.000
-4.718,-8.347,-2.977,-5.207,-3.782,-5.937,-2.639,-0.992,-0.085,1.004,-0.013,1.892,2.777,-0.366,80.000,9105.000,1.000
-3.466,-5.442,-1.348,-3.239,-2.738,-4.582,-1.523,0.233,-0.084,1.004,-0.012,1.862,2.869,-0.366,80.000,9106.000,1.000
-2.615,-3.046,-0.212,-1.340,-2.314,-3.832,-1.516,0.461,-0.083,1.003,-0.010,1.862,2.960,-0.305,80.000,9107.000,1.000
-2.132,-2.350,0.425,-0.393,-2.360,-4.135,-2.829,-1.018,-0.082,1.002,-0.014,1.862,3.052,-0.183,80.000,9108.000,1.000
-1.805,-2.727,0.622,-0.290,-2.797,-5.124,-4.685,-3.301,-0.083,1.003,-0.014,1.648,3.235,-0.092,80.000,9109.000,1.000
-1.566,-2.688,0.435,-0.265,-3.536,-5.991,-6.005,-4.852,-0.083,1.002,-0.017,1.648,3.265,-0.031,80.000,9110.000,1.000
-1.442,-1.684,0.148,0.150,-4.106,-6.083,-6.226,-5.111,-0.084,1.003,-0.013,1.617,3.296,0.275,80.000,9111.000,1.000
-1.255,-0.421,0.374,0.848,-3.708,-5.176,-5.436,-4.723,-0.086,1.006,-0.009,1.709,3.296,0.275,80.000,9112.000,1.000
-0.637,0.479,1.637,1.665,-1.948,-3.460,-3.992,-4.340,-0.084,1.002,-0.012,1.678,3.357,0.275,80.000,9113.000,1.000
0.600,1.459,3.833,2.802,0.609,-1.349,-2.201,-3.760,-0.085,0.999,-0.016,1.465,3.357,0.305,80.000,9114.000,1.000
2.226,3.265,6.218,4.447,2.881,0.719,-0.333,-2.512,-0.086,0.998,-0.014,1.617,3.296,0.366,80.000,9115.000,1.000
3.795,5.612,8.029,6.209,4.290,2.402,1.297,-0.863,-0.087,0.996,-0.014,1.648,3.296,0.366,80.000,9116.000,1.000
5.048,7.301,9.062,7.341,5.168,3.621,2.549,0.332,-0.089,0.997,-0.011,1.678,3.357,0.336,80.000,9117.000,1.000
5.941,7.692,9.536,7.555,6.070,4.630,3.636,0.714,-0.086,0.997,-0.014,1.678,3.235,0.183,80.000,9118.000,1.000
6.355,7.487,9.560,7.342,6.922,5.766,4.836,0.869,-0.086,0.998,-0.013,1.709,3.204,0.153,80.000,9119.000,1.000
6.082,7.753,9.073,7.410,7.156,7.057,6.028,1.531,-0.085,0.999,-0.012,1.740,3.021,0.122,80.000,9120.000,1.000
5.221,8.484,8.240,7.958,6.588,8.156,6.694,2.590,-0.084,0.997,-0.014,1.801,3.052,0.092,80.000,9121.000,1.000
4.386,8.756,7.632,8.642,5.826,8.825,6.532,3.321,-0.083,0.998,-0.013,1.923,3.082,0.092,80.000,9122.000,1.000
4.242,8.237,7.746,9.122,5.650,9.365,5.956,3.507,-0.083,1.000,-0.018,1.923,3.052,0.092,80.000,9123.000,1.000
4.731,7.720,8.275,9.292,6.025,10.216,5.648,3.756,-0.083,1.001,-0.017,1.892,3.143,0.000,80.000,9124.000,1.000
4.945,7.884,8.127,8.998,6.081,11.211,5.767,4.559,-0.083,0.998,-0.016,1.801,3.113,-0.092,80.000,9125.000,1.000
4.098,8.247,6.626,8.006,5.351,11.784,6.058,5.656,-0.081,0.998,-0.016,1.923,3.052,-0.122,80.000,9126.000,1.000
2.622,8.013,4.617,6.548,4.697,11.970,6.633,6.664,-0.082,1.001,-0.014,1.801,3.113,-0.275,80.000,9127.000,1.000
2.048,7.636,3.966,5.643,5.554,12.733,8.175,7.970,-0.083,1.001,-0.014,1.740,2.960,-0.214,80.000,9128.000,1.000
3.655,8.808,5.859,6.498,8.366,15.043,11.214,10.465,-0.080,1.004,-0.014,1.587,2.899,-0.214,80.000,9129.000,1.000
7.239,12.491,9.689,9.267,12.015,18.674,15.226,14.225,-0.082,1.004,-0.015,1.495,2.899,-0.183,80.000,9130.000,1.000
11.197,17.266,13.550,12.447,14.716,21.952,18.469,17.654,-0.081,1.005,-0.018,1.434,2.930,-0.183,80.000,9131.000,1.000
13.772,20.220,15.654,13.870,15.302,22.895,19.065,18.477,-0.082,1.007,-0.021,1.343,2.899,-0.305,80.000,9132.000,1.000
14.183,19.599,15.288,12.504,13.706,20.769,16.461,15.792,-0.083,1.005,-0.017,1.251,2.838,-0.458,80.000,9133.000,1.000
12.663,16.175,12.682,9.120,10.417,16.446,11.659,10.854,-0.083,1.007,-0.016,1.068,2.808,-0.458,80.000,9134.000,1.000
9.920,11.996,8.544,5.321,6.008,11.437,6.143,5.773,-0.082,1.008,-0.017,1.007,2.808,-0.427,80.000,9135.000,1.000
7.001,8.493,4.126,2.359,1.479,7.048,1.078,1.864,-0.082,1.008,-0.013,0.702,2.716,-0.458,80.000,9136.000,1.000
5.237,6.110,1.225,0.844,-1.539,4.316,-2.556,-0.592,-0.082,1.007,-0.017,0.671,2.686,-0.549,80.000,9137.000,1.000
5.566,5.185,1.277,1.024,-1.718,3.948,-3.842,-1.492,-0.083,1.005,-0.017,0.641,2.533,-0.397,80.000,9138.000,1.000
7.796,6.223,4.091,2.819,0.643,5.775,-2.589,-0.639,-0.083,1.007,-0.015,0.519,2.502,-0.458,80.000,9139.000,1.000
10.824,8.979,7.757,5.489,3.579,8.423,-0.053,1.444,-0.084,1.008,-0.018,0.458,2.502,-0.458,80.000,9140.000,1.000
13.673,11.930,10.262,7.756,5.179,10.129,1.700,3.185,-0.084,1.004,-0.016,0.366,2.472,-0.427,80.000,9141.000,1.000
16.247,13.434,11.195,8.734,5.258,10.184,1.534,3.187,-0.084,1.004,-0.018,0.397,2.502,-0.519,80.000,9142.000,1.000
19.131,13.376,11.650,8.718,5.007,9.323,0.067,1.656,-0.084,1.002,-0.018,0.427,2.563,-0.580,80.000,9143.000,1.000
22.703,13.276,12.698,8.899,5.366,8.746,-1.201,0.290,-0.084,1.000,-0.019,0.336,2.411,-0.519,80.000,9144.000,1.000
26.545,14.607,14.434,10.263,6.345,9.058,-1.244,0.678,-0.084,0.999,-0.016,0.427,2.319,-0.580,80.000,9145.000,1.000
29.846,17.232,16.404,12.804,7.733,10.144,0.009,2.909,-0.083,1.000,-0.019,0.366,2.441,-0.824,80.000,9146.000,1.000
32.278,19.790,18.417,15.742,9.756,11.795,2.208,5.865,-0.085,1.000,-0.018,0.488,2.472,-0.793,80.000,9147.000,1.000
34.209,21.443,20.617,18.374,12.663,14.066,5.147,8.639,-0.086,1.000,-0.013,0.549,2.502,-0.793,80.000,9148.000,1.000
36.066,22.716,22.940,20.575,15.945,16.885,8.626,11.264,-0.085,0.998,-0.011,0.610,2.411,-0.824,80.000,9149.000,1.000
37.812,24.415,24.867,22.503,18.456,19.544,12.019,14.044,-0.085,1.000,-0.014,0.671,2.350,-0.824,80.000,9150.000,1.000
39.116,26.217,25.927,24.016,19.474,20.977,14.376,16.568,-0.082,0.999,-0.013,0.641,2.350,-0.793,80.000,9151.000,1.000
39.751,26.878,26.210,24.596,19.351,20.606,15.103,17.835,-0.085,1.001,-0.015,0.732,2.380,-0.793,80.000,9152.000,1.000
39.635,25.752,26.134,23.883,18.893,18.766,14.441,17.356,-0.085,1.002,-0.011,0.793,2.411,-0.793,80.000,9153.000,1.000
38.658,23.665,25.881,22.190,18.450,16.400,13.279,15.881,-0.085,1.002,-0.014,0.824,2.350,-0.732,80.000,9154.000,1.000
36.745,22.015,25.328,20.322,17.916,14.491,12.518,14.733,-0.085,1.002,-0.014,0.885,2.319,-0.763,80.000,9155.000,1.000
34.126,21.205,24.378,18.800,17.290,13.569,12.462,14.389,-0.084,1.002,-0.015,0.824,2.350,-0.671,80.000,9156.000,1.000
31.397,20.427,23.164,17.471,16.820,13.565,12.750,14.119,-0.085,1.002,-0.015,0.793,2.380,-0.824,80.000,9157.000,1.000
29.088,19.003,21.886,15.998,16.536,14.020,12.792,13.094,-0.085,1.000,-0.016,1.038,2.350,-0.702,80.000,9158.000,1.000
27.136,17.307,20.513,14.446,15.899,14.285,12.145,11.394,-0.084,1.001,-0.013,1.068,2.441,-0.732,80.000,9159.000,1.000
24.898,16.005,18.756,13.106,14.181,13.643,10.575,9.598,-0.085,1.001,-0.011,1.190,2.441,-0.610,80.000,9160.000,1.000
21.864,14.889,16.502,11.984,11.331,11.612,8.078,7.811,-0.083,0.999,-0.010,1.160,2.411,-0.702,80.000,9161.000,1.000
18.200,13.061,14.101,10.720,8.217,8.363,5.057,5.623,-0.083,0.998,-0.012,1.160,2.502,-0.519,80.000,9162.000,1.000
14.313,10.087,11.890,8.889,5.665,4.581,2.106,2.833,-0.084,0.998,-0.014,1.190,2.655,-0.519,80.000,9163.000,1.000
10.098,6.505,9.502,6.269,3.402,0.811,-0.561,-0.248,-0.082,0.996,-0.011,1.221,2.563,-0.458,80.000,9164.000,1.000
5.101,3.164,6.236,3.007,0.588,-2.788,-3.123,-3.094,-0.082,0.997,-0.014,1.343,2.563,-0.305,80.000,9165.000,1.000
-0.636,0.329,2.148,-0.403,-2.685,-6.010,-5.499,-5.350,-0.083,0.996,-0.015,1.434,2.594,-0.366,80.000,9166.000,1.000
-6.328,-2.346,-1.689,-3.381,-5.107,-8.299,-7.010,-6.857,-0.083,0.996,-0.015,1.434,2.655,-0.275,80.000,9167.000,1.000
-11.130,-5.027,-4.199,-5.489,-5.553,-9.092,-6.887,-7.409,-0.084,0.997,-0.014,1.587,2.777,-0.183,80.000,9168.000,1.000
-14.861,-7.264,-5.368,-6.502,-4.420,-8.438,-5.129,-6.770,-0.084,0.998,-0.015,1.617,2.838,-0.122,80.000,9169.000,1.000
-18.042,-8.674,-6.164,-6.577,-3.298,-7.198,-2.799,-5.232,-0.084,0.997,-0.017,1.678,2.869,-0.092,80.000,9170.000,1.000
-21.301,-9.793,-7.510,-6.400,-3.427,-6.476,-1.360,-3.921,-0.085,1.001,-0.018,1.678,2.899,-0.214,80.000,9171.000,1.000
-24.703,-11.604,-9.427,-6.784,-4.638,-6.643,-1.485,-4.003,-0.081,1.001,-0.018,1.770,2.808,-0.153,80.000,9172.000,1.000
-27.644,-14.057,-11.119,-7.823,-5.756,-6.935,-2.452,-5.392,-0.084,1.002,-0.019,1.801,2.960,-0.092,80.000,9173.000,1.000
-29.490,-15.728,-11.862,-8.749,-5.936,-6.261,-2.892,-6.675,-0.084,1.003,-0.018,1.801,3.021,-0.061,80.000,9174.000,1.000
-30.244,-15.384,-11.675,-8.842,-5.360,-4.429,-2.162,-6.596,-0.083,1.003,-0.017,1.831,3.235,-0.061,80.000,9175.000,1.000
-30.404,-13.532,-11.052,-8.269,-4.630,-2.318,-0.804,-5.366,-0.082,1.004,-0.017,1.770,3.143,0.000,80.000,9176.000,1.000
-30.318,-11.883,-10.292,-7.816,-3.881,-0.863,0.315,-4.237,-0.082,1.006,-0.019,1.709,3.204,-0.031,80.000,9177.000,1.000
-29.910,-11.377,-9.335,-7.917,-2.863,-0.163,0.982,-3.951,-0.082,1.005,-0.019,1.648,3.113,0.000,80.000,9178.000,1.000
-28.988,-11.246,-8.166,-8.183,-1.682,0.286,1.606,-4.020,-0.083,1.006,-0.020,1.556,3.174,-0.031,80.000,9179.000,1.000
-27.548,-10.216,-7.019,-7.913,-0.907,0.750,2.417,-3.616,-0.083,1.007,-0.019,1.587,3.174,0.000,80.000,9180.000,1.000
-25.669,-8.162,-6.009,-6.848,-0.758,1.024,3.144,-2.675,-0.082,1.004,-0.022,1.373,3.052,0.061,80.000,9181.000,1.000
-23.372,-6.125,-4.842,-5.291,-0.635,0.911,3.473,-1.793,-0.081,1.003,-0.021,1.312,3.265,0.000,80.000,9182.000,1.000
-20.879,-4.994,-3.263,-3.700,0.077,0.428,3.369,-1.367,-0.082,1.007,-0.018,1.251,3.204,-0.031,80.000,9183.000,1.000
-18.890,-4.680,-1.662,-2.344,1.012,-0.426,2.850,-1.193,-0.082,1.006,-0.018,1.221,3.204,0.031,80.000,9184.000,1.000
-18.131,-4.549,-0.780,-1.265,1.240,-1.717,1.833,-0.896,-0.083,1.007,-0.020,1.068,3.204,-0.092,80.000,9185.000,1.000
-18.415,-4.264,-0.677,-0.333,0.645,-3.237,0.456,-0.449,-0.084,1.007,-0.020,1.038,3.296,-0.031,80.000,9186.000,1.000
-18.511,-3.945,-0.418,0.656,0.235,-4.426,-0.732,-0.116,-0.082,1.009,-0.018,0.916,3.265,0.000,80.000,9187.000,1.000
-17.349,-3.750,0.762,1.721,0.725,-4.930,-1.230,-0.087,-0.082,1.008,-0.017,0.732,3.296,0.031,80.000,9188.000,1.000
-15.203,-3.606,2.248,2.554,1.296,-5.104,-1.164,-0.332,-0.082,1.007,-0.017,0.732,3.357,0.031,80.000,9189.000,1.000
-13.387,-3.531,2.496,2.680,0.319,-5.802,-1.318,-0.891,-0.082,1.008,-0.018,0.580,3.326,-0.031,80.000,9190.000,1.000
-12.933,-4.083,0.629,1.706,-2.829,-7.614,-2.547,-2.157,-0.082,1.009,-0.021,0.366,3.387,0.031,80.000,9191.000,1.000
-13.780,-5.981,-2.726,-0.463,-7.050,-10.164,-4.938,-4.492,-0.082,1.007,-0.017,0.488,3.326,0.000,80.000,9192.000,1.000
-15.182,-9.071,-6.198,-3.411,-10.597,-12.198,-7.508,-7.424,-0.081,1.006,-0.012,0.366,3.357,-0.092,80.000,9193.000,1.000
-16.599,-12.009,-8.938,-6.298,-12.588,-12.591,-8.961,-9.619,-0.082,1.003,-0.010,0.275,3.265,0.031,80.000,9194.000,1.000
-18.000,-13.416,-10.978,-8.384,-13.320,-11.331,-8.796,-9.956,-0.082,1.004,-0.011,0.305,3.296,0.000,80.000,9195.000,1.000
-19.411,-13.256,-12.559,-9.536,-13.333,-9.372,-7.543,-8.527,-0.083,1.002,-0.011,0.214,3.174,0.031,80.000,9196.000,1.000
-20.503,-12.662,-13.481,-10.108,-12.636,-7.586,-5.975,-6.367,-0.082,1.002,-0.013,0.275,3.143,0.031,80.000,9197.000,1.000
-20.846,-12.451,-13.367,-10.370,-11.064,-6.104,-4.382,-4.317,-0.084,1.001,-0.013,0.244,3.174,0.031,80.000,9198.000,1.000
-20.419,-12.206,-12.339,-10.179,-9.013,-4.631,-2.666,-2.390,-0.082,0.999,-0.016,0.305,3.082,0.000,80.000,9199.000,1.000
-19.644,-11.123,-11.069,-9.311,-7.310,-3.132,-0.891,-0.319,-0.082,1.000,-0.017,0.366,2.991,0.031,80.000,9200.000,1.000
-18.923,-9.425,-10.151,-7.986,-6.400,-2.006,0.469,1.559,-0.082,0.998,-0.014,0.397,2.960,-0.061,80.000,9201.000,1.000
-18.385,-8.406,-9.718,-6.936,-6.040,-1.662,0.859,2.302,-0.081,0.999,-0.014,0.397,2.960,-0.092,80.000,9202.000,1.000
-18.146,-9.075,-9.817,-6.925,-5.996,-2.234,0.016,1.266,-0.082,0.997,-0.011,0.458,2.930,0.000,80.000,9203.000,1.000
-18.586,-11.161,-10.886,-8.184,-6.710,-3.739,-1.989,-1.197,-0.081,0.997,-0.010,0.458,3.021,-0.061,80.000,9204.000,1.000
-20.097,-13.668,-13.449,-10.323,-8.847,-6.208,-4.892,-4.127,-0.081,0.998,-0.010,0.519,2.991,-0.153,80.000,9205.000,1.000
-22.551,-16.119,-17.292,-12.756,-12.247,-9.497,-8.294,-6.897,-0.081,0.999,-0.011,0.580,2.930,-0.183,80.000,9206.000,1.000
-25.159,-18.775,-21.213,-15.106,-15.740,-13.028,-11.619,-9.494,-0.079,0.996,-0.011,0.671,3.021,-0.275,80.000,9207.000,1.000
-26.949,-21.604,-23.845,-17.104,-18.147,-15.906,-14.207,-11.899,-0.081,0.997,-0.013,0.793,2.930,-0.244,80.000,9208.000,1.000
-27.481,-23.617,-24.733,-18.378,-19.298,-17.482,-15.654,-13.616,-0.079,0.998,-0.014,0.977,2.869,-0.336,80.000,9209.000,1.000
-27.149,-23.812,-24.550,-18.748,-19.955,-17.914,-16.252,-14.276,-0.079,0.996,-0.012,0.977,2.930,-0.397,80.000,9210.000,1.000
-26.760,-22.630,-24.365,-18.692,-20.872,-18.085,-16.927,-14.493,-0.081,0.996,-0.011,0.946,2.991,-0.427,80.000,9211.000,1.000
-26.691,-21.692,-24.657,-19.013,-21.970,-18.645,-18.284,-15.354,-0.080,0.997,-0.011,0.977,3.021,-0.458,80.000,9212.000,1.000
-26.502,-21.864,-25.024,-19.849,-22.497,-19.216,-19.738,-16.952,-0.080,0.999,-0.010,1.038,2.899,-0.549,80.000,9213.000,1.000
-25.499,-22.276,-24.865,-20.457,-22.022,-18.906,-20.056,-18.092,-0.080,0.999,-0.012,1.068,2.899,-0.641,80.000,9214.000,1.000
-23.585,-21.677,-24.173,-20.171,-21.028,-17.517,-18.794,-17.759,-0.082,1.000,-0.014,1.129,2.808,-0.671,80.000,9215.000,1.000
-21.363,-20.226,-23.424,-19.272,-20.273,-15.852,-16.813,-16.431,-0.083,0.999,-0.015,1.221,2.838,-0.793,80.000,9216.000,1.000
-19.519,-19.276,-22.895,-18.683,-19.906,-14.888,-15.371,-15.596,-0.081,1.001,-0.013,1.190,2.747,-0.824,80.000,9217.000,1.000
-18.290,-19.547,-22.404,-18.904,-19.542,-14.902,-14.997,-16.085,-0.081,1.002,-0.010,1.099,2.747,-0.763,80.000,9218.000,1.000
-17.508,-20.117,-21.701,-19.434,-18.985,-15.348,-15.285,-17.204,-0.081,1.002,-0.014,1.129,2.747,-0.793,80.000,9219.000,1.000
-16.873,-19.520,-20.782,-19.330,-18.427,-15.438,-15.491,-17.615,-0.083,1.001,-0.011,1.221,2.716,-0.824,80.000,9220.000,1.000
-16.013,-17.521,-19.692,-18.175,-17.964,-14.832,-15.208,-16.845,-0.082,1.001,-0.013,1.099,2.777,-0.824,80.000,9221.000,1.000
-14.545,-15.357,-18.325,-16.391,-17.344,-13.847,-14.541,-15.650,-0.085,1.003,-0.013,1.160,2.625,-0.854,80.000,9222.000,1.000
-12.327,-14.211,-16.639,-14.655,-16.385,-13.043,-13.750,-14.932,-0.084,1.002,-0.012,1.099,2.594,-0.885,80.000,9223.000,1.000
-9.621,-13.789,-14.862,-13.130,-15.289,-12.563,-12.768,-14.573,-0.084,1.002,-0.011,1.129,2.563,-0.946,80.000,9224.000,1.000
-6.948,-12.840,-13.311,-11.504,-14.306,-12.014,-11.259,-13.676,-0.083,1.003,-0.012,1.068,2.533,-0.946,80.000,9225.000,1.000
-4.793,-10.920,-12.083,-9.700,-13.270,-11.031,-9.148,-11.854,-0.084,1.006,-0.009,0.977,2.472,-0.854,80.000,9226.000,1.000
-3.237,-8.852,-10.864,-8.071,-11.602,-9.589,-6.713,-9.629,-0.082,1.006,-0.011,0.977,2.594,-0.793,80.000,9227.000,1.000
-1.826,-7.247,-9.101,-6.722,-8.798,-7.630,-4.003,-7.374,-0.081,1.007,-0.016,0.885,2.502,-0.885,80.000,9228.000,1.000
-0.151,-5.567,-6.689,-5.243,-5.128,-5.002,-0.796,-4.727,-0.083,1.007,-0.017,0.946,2.380,-0.916,80.000,9229.000,1.000
1.359,-3.375,-4.528,-3.528,-1.886,-2.202,2.505,-1.630,-0.083,1.004,-0.017,0.793,2.441,-0.946,80.000,9230.000,1.000
1.662,-1.791,-3.897,-2.373,-0.516,-0.604,4.560,0.681,-0.083,1.005,-0.016,0.824,2.472,-0.854,80.000,9231.000,1.000
0.159,-2.720,-5.266,-2.887,-1.496,-1.453,4.091,0.441,-0.084,1.005,-0.014,0.671,2.441,-0.854,80.000,9232.000,1.000
-2.840,-6.714,-8.086,-5.459,-4.317,-4.806,0.948,-2.960,-0.085,1.007,-0.014,0.732,2.533,-0.732,80.000,9233.000,1.000
-6.467,-12.037,-11.467,-9.294,-8.198,-9.485,-3.817,-8.217,-0.083,1.006,-0.015,0.763,2.563,-0.763,80.000,9234.000,1.000
-9.679,-15.982,-14.551,-12.824,-12.243,-13.810,-8.570,-13.004,-0.083,1.008,-0.010,0.610,2.502,-0.641,80.000,9235.000,1.000
-11.491,-17.078,-16.459,-14.700,-15.176,-16.431,-11.846,-15.639,-0.082,1.006,-0.013,0.641,2.563,-0.549,80.000,9236.000,1.000
-11.313,-15.876,-16.473,-14.567,-15.718,-16.778,-12.901,-15.943,-0.081,1.003,-0.011,0.580,2.686,-0.580,80.000,9237.000,1.000
-9.178,-13.589,-14.470,-12.882,-13.567,-15.024,-11.810,-14.609,-0.081,1.002,-0.012,0.580,2.594,-0.366,80.000,9238.000,1.000
-5.707,-10.624,-11.146,-10.263,-9.881,-11.940,-9.294,-12.256,-0.081,1.000,-0.014,0.397,2.716,-0.519,80.000,9239.000,1.000
-1.927,-6.974,-7.755,-7.343,-6.619,-8.834,-6.600,-9.486,-0.080,0.999,-0.015,0.458,2.808,-0.519,80.000,9240.000,1.000
1.254,-3.420,-5.271,-4.889,-5.083,-7.043,-5.110,-7.338,-0.083,0.998,-0.012,0.641,2.838,-0.488,80.000,9241.000,1.000
3.688,-1.241,-3.581,-3.410,-4.957,-6.993,-5.487,-6.801,-0.082,0.998,-0.008,0.702,2.838,-0.610,80.000,9242.000,1.000
5.928,-0.695,-1.744,-2.614,-4.872,-7.847,-7.111,-7.692,-0.083,0.998,-0.009,0.793,2.869,-0.580,80.000,9243.000,1.000
8.495,-0.397,0.960,-1.507,-3.751,-8.162,-8.475,-8.418,-0.083,0.999,-0.010,0.854,2.960,-0.549,80.000,9244.000,1.000
11.319,1.313,4.355,0.739,-1.480,-6.946,-8.308,-7.279,-0.083,1.003,-0.013,0.916,2.960,-0.519,80.000,9245.000,1.000
13.861,4.469,7.674,3.932,1.451,-4.251,-6.441,-4.125,-0.083,1.004,-0.011,0.824,2.869,-0.488,80.000,9246.000,1.000
15.726,7.495,10.339,7.039,4.604,-0.848,-3.593,-0.384,-0.083,1.005,-0.009,0.732,2.899,-0.519,80.000,9247.000,1.000
17.030,9.169,12.328,9.243,7.738,2.525,-0.475,2.583,-0.082,1.002,-0.012,0.671,3.021,-0.519,80.000,9248.000,1.000
18.146,9.938,13.834,10.614,10.460,5.464,2.636,4.703,-0.082,1.002,-0.013,0.732,3.082,-0.549,80.000,9249.000,1.000
19.332,11.063,14.931,11.725,12.265,7.734,5.644,6.707,-0.081,1.000,-0.015,0.854,3.082,-0.427,80.000,9250.000,1.000
20.708,12.939,15.749,12.931,13.201,9.276,8.414,8.924,-0.082,0.998,-0.011,0.732,3.113,-0.427,80.000,9251.000,1.000
22.307,14.744,16.635,14.069,14.096,10.385,10.912,10.972,-0.082,0.998,-0.013,0.885,3.235,-0.427,80.000,9252.000,1.000
23.869,15.595,17.743,14.708,15.637,11.567,13.285,12.451,-0.081,1.000,-0.014,1.007,3.357,-0.397,80.000,9253.000,1.000
24.750,15.556,18.568,14.571,17.392,13.012,15.545,13.487,-0.081,1.001,-0.014,1.038,3.357,-0.336,80.000,9254.000,1.000
24.341,15.246,18.270,13.707,18.162,14.272,17.207,14.337,-0.081,1.000,-0.013,1.099,3.479,-0.244,80.000,9255.000,1.000
22.687,14.726,16.577,12.324,17.296,14.585,17.471,14.674,-0.083,1.001,-0.015,1.160,3.418,-0.275,80.000,9256.000,1.000
20.532,13.350,14.138,10.581,15.295,13.545,15.925,13.721,-0.083,1.000,-0.015,1.160,3.448,-0.183,80.000,9257.000,1.000
18.632,10.804,11.791,8.619,13.031,11.414,12.964,11.202,-0.085,1.000,-0.014,1.160,3.510,-0.183,80.000,9258.000,1.000
17.098,7.853,9.698,6.695,10.750,8.802,9.482,7.890,-0.086,0.999,-0.014,1.190,3.479,-0.214,80.000,9259.000,1.000
15.574,5.695,7.487,5.149,8.214,6.211,6.299,5.042,-0.087,0.999,-0.009,1.221,3.448,-0.336,80.000,9260.000,1.000
14.002,4.775,5.238,4.257,5.700,3.968,3.929,3.417,-0.088,0.998,-0.010,1.282,3.296,-0.366,80.000,9261.000,1.000
12.953,4.636,3.890,4.148,4.287,2.479,2.691,2.991,-0.089,0.999,-0.009,1.343,3.174,-0.458,80.000,9262.000,1.000
13.081,4.896,4.426,4.873,4.866,2.260,2.780,3.513,-0.089,0.999,-0.012,1.343,3.235,-0.488,80.000,9263.000,1.000
14.380,5.883,6.748,6.450,7.089,3.481,4.077,4.974,-0.088,0.998,-0.015,1.434,2.991,-0.610,80.000,9264.000,1.000
16.037,7.892,9.501,8.556,9.466,5.464,5.871,7.185,-0.087,1.000,-0.012,1.495,2.991,-0.702,80.000,9265.000,1.000
17.082,10.166,11.132,10.333,10.630,7.005,7.114,9.223,-0.085,1.001,-0.009,1.495,2.960,-0.916,80.000,9266.000,1.000
17.215,11.363,11.181,10.938,10.505,7.443,7.314,10.001,-0.086,1.001,-0.009,1.434,2.808,-0.977,80.000,9267.000,1.000
16.825,11.025,10.317,10.290,10.020,7.140,6.957,9.402,-0.085,1.003,-0.011,1.373,2.747,-0.946,80.000,9268.000,1.000
16.238,10.121,9.258,9.076,9.833,6.876,6.921,8.485,-0.085,1.004,-0.012,1.343,2.777,-1.007,80.000,9269.000,1.000
15.348,9.935,8.142,8.113,9.828,7.081,7.652,8.449,-0.084,1.005,-0.009,1.282,2.777,-0.885,80.000,9270.000,1.000
14.018,10.612,6.935,7.772,9.760,7.635,8.912,9.475,-0.083,1.007,-0.012,1.221,2.686,-0.793,80.000,9271.000,1.000
12.584,11.177,5.970,7.947,9.904,8.292,10.249,10.785,-0.085,1.006,-0.010,1.221,2.747,-0.824,80.000,9272.000,1.000
11.742,11.043,5.830,8.521,10.775,9.161,11.601,11.774,-0.084,1.008,-0.014,1.038,2.808,-0.732,80.000,9273.000,1.000
11.832,10.843,6.632,9.542,12.236,10.421,13.116,12.589,-0.084,1.008,-0.013,0.946,2.716,-0.671,80.000,9274.000,1.000
12.378,11.351,7.644,10.810,13.247,11.584,14.404,13.395,-0.083,1.008,-0.013,0.885,2.747,-0.641,80.000,9275.000,1.000
12.545,12.115,7.911,11.592,12.848,11.593,14.506,13.609,-0.083,1.008,-0.010,0.854,2.686,-0.519,80.000,9276.000,1.000
11.886,11.747,7.147,11.023,11.150,9.823,12.805,12.321,-0.082,1.008,-0.008,0.793,2.563,-0.580,80.000,9277.000,1.000
10.562,9.608,5.855,8.938,9.085,6.778,9.763,9.487,-0.082,1.007,-0.009,0.641,2.594,-0.458,80.000,9278.000,1.000
9.081,6.865,4.795,6.303,7.484,3.801,6.726,6.441,-0.084,1.006,-0.010,0.549,2.563,-0.549,80.000,9279.000,1.000
7.946,5.483,4.477,4.544,6.636,2.141,4.978,4.842,-0.085,1.005,-0.010,0.427,2.655,-0.427,80.000,9280.000,1.000
7.415,6.234,5.043,4.267,6.573,2.222,4.885,5.068,-0.086,1.004,-0.007,0.549,2.747,-0.305,80.000,9281.000,1.000
7.494,8.161,6.398,4.807,7.351,3.655,5.903,5.959,-0.086,1.002,-0.012,0.488,2.625,-0.305,80.000,9282.000,1.000
8.003,9.968,8.236,5.105,8.787,5.706,7.202,6.168,-0.088,1.001,-0.010,0.519,2.533,-0.305,80.000,9283.000,1.000
8.529,11.334,9.933,4.722,10.072,7.614,8.102,5.372,-0.089,0.998,-0.013,0.580,2.380,-0.336,80.000,9284.000,1.000
8.559,12.563,10.726,3.921,10.143,8.688,8.138,4.102,-0.090,0.996,-0.011,0.549,2.350,-0.305,80.000,9285.000,1.000
7.925,13.449,10.302,3.072,8.689,8.520,7.130,2.800,-0.089,0.997,-0.011,0.641,2.228,-0.488,80.000,9286.000,1.000
7.053,13.186,9.138,2.286,6.578,7.291,5.371,1.470,-0.091,0.996,-0.009,0.549,2.075,-0.458,80.000,9287.000,1.000
6.627,11.567,8.111,1.661,5.098,5.797,3.668,0.284,-0.086,0.994,-0.008,0.671,1.923,-0.610,80.000,9288.000,1.000
7.033,9.774,7.797,1.659,4.919,5.005,3.012,0.084,-0.086,0.995,-0.010,0.763,1.923,-0.671,80.000,9289.000,1.000
8.153,9.376,8.225,2.875,5.886,5.402,3.964,1.760,-0.086,0.997,-0.014,0.977,1.892,-0.702,80.000,9290.000,1.000
9.591,10.610,9.209,5.311,7.615,6.753,6.306,5.138,-0.084,0.999,-0.013,1.068,1.892,-0.732,80.000,9291.000,1.000
11.079,12.225,10.754,8.218,10.025,8.558,9.389,8.970,-0.085,0.998,-0.012,1.129,1.831,-0.793,80.000,9292.000,1.000
12.557,12.995,12.838,10.712,13.021,10.482,12.633,12.080,-0.083,1.000,-0.011,1.129,1.862,-0.702,80.000,9293.000,1.000
13.750,12.797,14.754,12.231,15.724,12.114,15.464,14.065,-0.084,1.002,-0.009,1.221,2.014,-0.793,80.000,9294.000,1.000
13.977,12.075,15.158,12.421,16.642,12.712,17.100,14.893,-0.083,1.001,-0.012,1.099,1.984,-0.641,80.000,9295.000,1.000
12.722,10.781,13.218,11.012,15.006,11.709,16.904,14.331,-0.082,1.001,-0.013,1.190,2.167,-0.641,80.000,9296.000,1.000
10.280,8.401,9.548,8.094,11.602,9.373,14.932,12.106,-0.082,1.003,-0.012,1.129,2.075,-0.641,80.000,9297.000,1.000
7.559,5.008,5.701,4.396,7.946,6.658,11.902,8.523,-0.083,1.001,-0.015,1.251,2.106,-0.671,80.000,9298.000,1.000
5.194,1.724,2.767,1.039,4.837,4.379,8.554,4.580,-0.082,1.001,-0.014,1.221,2.167,-0.580,80.000,9299.000,1.000
3.111,-0.254,0.727,-1.177,2.065,2.688,5.198,1.260,-0.080,1.002,-0.013,1.221,2.228,-0.610,80.000,9300.000,1.000
1.096,-0.861,-0.847,-2.243,-0.542,1.332,1.942,-1.169,-0.082,1.000,-0.012,1.312,2.350,-0.519,80.000,9301.000,1.000
-0.501,-0.969,-1.850,-2.659,-2.322,0.288,-0.831,-2.967,-0.082,1.001,-0.011,1.373,2.441,-0.580,80.000,9302.000,1.000
-0.920,-1.020,-1.685,-2.670,-2.297,0.043,-2.344,-4.059,-0.084,1.001,-0.012,1.465,2.594,-0.488,80.000,9303.000,1.000
0.172,-0.302,-0.039,-1.911,-0.237,1.202,-1.860,-3.655,-0.085,1.002,-0.014,1.617,2.594,-0.549,80.000,9304.000,1.000
2.188,2.040,2.630,0.031,3.027,3.807,0.640,-1.087,-0.085,1.002,-0.012,1.678,2.625,-0.610,80.000,9305.000,1.000
4.052,5.375,5.298,2.677,6.167,6.926,4.031,2.912,-0.086,1.001,-0.012,1.678,2.686,-0.580,80.000,9306.000,1.000
5.058,7.556,6.868,4.561,7.960,8.948,6.408,6.123,-0.085,0.999,-0.013,1.740,2.594,-0.519,80.000,9307.000,1.000
5.162,6.880,6.622,4.343,7.613,8.599,6.290,6.574,-0.084,1.000,-0.013,1.709,2.533,-0.519,80.000,9308.000,1.000
4.535,3.795,4.463,1.996,4.969,5.817,3.669,4.289,-0.084,1.000,-0.015,1.709,2.594,-0.549,80.000,9309.000,1.000
3.262,0.219,0.932,-1.232,0.644,1.547,-0.262,0.975,-0.085,1.000,-0.016,1.923,2.594,-0.549,80.000,9310.000,1.000
1.668,-2.499,-2.829,-3.846,-3.977,-3.038,-4.200,-1.762,-0.084,1.001,-0.015,1.831,2.594,-0.580,80.000,9311.000,1.000
0.611,-4.336,-5.313,-4.943,-7.116,-6.874,-7.224,-3.369,-0.083,1.001,-0.015,1.831,2.625,-0.671,80.000,9312.000,1.000
1.004,-5.555,-5.414,-4.287,-7.558,-9.010,-8.651,-3.803,-0.084,1.001,-0.016,1.862,2.716,-0.641,80.000,9313.000,1.000
2.973,-5.764,-3.273,-2.016,-5.518,-8.993,-8.071,-2.850,-0.083,1.002,-0.016,1.801,2.777,-0.702,80.000,9314.000,1.000
5.705,-4.398,-0.145,1.455,-2.337,-7.339,-5.664,-0.362,-0.084,1.005,-0.015,1.831,2.838,-0.732,80.000,9315.000,1.000
8.083,-1.858,2.647,5.254,0.726,-5.278,-2.280,3.023,-0.084,1.003,-0.015,1.923,2.747,-0.671,80.000,9316.000,1.000
9.308,0.386,4.440,8.083,3.157,-3.816,0.924,5.815,-0.085,1.005,-0.015,1.862,2.686,-0.549,80.000,9317.000,1.000
9.091,1.122,5.108,8.862,4.737,-3.107,3.011,6.666,-0.085,1.007,-0.013,1.740,2.625,-0.549,80.000,9318.000,1.000
7.655,0.616,4.694,7.563,5.040,-2.686,3.612,5.500,-0.086,1.007,-0.014,1.587,2.686,-0.427,80.000,9319.000,1.000
5.615,0.073,3.369,5.217,3.731,-2.207,2.876,3.426,-0.087,1.007,-0.014,1.434,2.686,-0.580,80.000,9320.000,1.000
3.774,0.010,1.654,3.018,1.234,-1.877,1.135,1.525,-0.086,1.008,-0.014,1.343,2.594,-0.488,80.000,9321.000,1.000
2.862,-0.152,0.457,1.609,-1.189,-2.088,-1.181,0.120,-0.084,1.008,-0.017,1.282,2.686,-0.458,80.000,9322.000,1.000
3.222,-0.794,0.636,1.169,-2.244,-2.727,-3.345,-0.737,-0.083,1.006,-0.018,1.190,2.655,-0.366,80.000,9323.000,1.000
4.568,-1.135,2.359,1.780,-1.583,-3.135,-4.452,-0.668,-0.083,1.005,-0.018,1.160,2.716,-0.397,80.000,9324.000,1.000
6.090,-0.101,4.911,3.343,0.047,-2.803,-4.083,0.619,-0.082,1.006,-0.016,1.068,2.899,-0.427,80.000,9325.000,1.000
6.951,2.116,7.209,5.234,1.628,-1.891,-2.743,2.510,-0.082,1.007,-0.018,1.129,2.838,-0.244,80.000,9326.000,1.000
6.850,4.027,8.577,6.428,2.693,-0.897,-1.399,3.676,-0.081,1.006,-0.015,0.946,2.838,-0.122,80.000,9327.000,1.000
6.172,4.565,9.069,6.321,3.313,-0.009,-0.608,3.333,-0.082,1.006,-0.015,0.977,2.869,0.000,80.000,9328.000,1.000
5.548,4.343,9.122,5.334,3.560,1.001,-0.218,2.056,-0.083,1.006,-0.016,0.946,2.991,0.000,80.000,9329.000,1.000
5.274,4.751,9.019,4.432,3.304,2.302,0.141,1.007,-0.083,1.003,-0.018,0.916,2.838,0.061,80.000,9330.000,1.000
5.324,6.215,8.912,4.195,2.697,3.797,0.604,0.642,-0.084,1.000,-0.013,0.763,2.930,0.031,80.000,9331.000,1.000
5.794,7.914,9.155,4.512,2.488,5.437,1.218,0.563,-0.085,0.996,-0.015,0.732,2.869,0.092,80.000,9332.000,1.000
6.881,8.972,10.073,5.003,3.296,7.274,2.073,0.398,-0.085,0.999,-0.016,0.854,2.960,-0.061,80.000,9333.000,1.000
8.509,9.443,11.436,5.522,4.734,9.114,3.112,0.386,-0.087,0.998,-0.015,0.824,2.808,-0.092,80.000,9334.000,1.000
10.310,9.960,12.560,6.260,5.782,10.470,4.044,1.034,-0.088,0.998,-0.015,0.977,2.716,-0.214,80.000,9335.000,1.000
12.028,10.645,13.029,7.376,6.029,11.001,4.619,2.393,-0.087,0.997,-0.017,0.916,2.716,-0.275,80.000,9336.000,1.000
13.857,10.979,13.235,8.805,6.253,11.023,5.076,4.066,-0.088,1.000,-0.014,1.038,2.594,-0.305,80.000,9337.000,1.000
16.236,10.878,14.071,10.516,7.630,11.504,6.247,5.980,-0.085,1.000,-0.017,1.038,2.563,-0.366,80.000,9338.000,1.000
19.228,11.251,15.923,12.654,10.402,13.237,8.870,8.676,-0.083,1.001,-0.017,1.007,2.441,-0.366,80.000,9339.000,1.000
22.291,12.954,18.092,15.162,13.499,15.928,12.681,12.468,-0.082,1.002,-0.016,1.038,2.411,-0.458,80.000,9340.000,1.000
24.747,15.465,19.440,17.441,15.568,18.305,16.335,16.559,-0.082,1.003,-0.016,1.007,2.472,-0.580,80.000,9341.000,1.000
26.352,17.178,19.517,18.686,16.153,19.246,18.376,19.383,-0.080,1.005,-0.017,0.977,2.380,-0.580,80.000,9342.000,1.000
27.366,17.081,18.780,18.614,15.661,18.642,18.198,19.891,-0.078,1.005,-0.017,0.977,2.411,-0.519,80.000,9343.000,1.000
28.158,15.749,17.840,17.739,14.493,17.165,16.163,18.402,-0.078,1.005,-0.017,0.916,2.441,-0.458,80.000,9344.000,1.000
28.833,14.515,16.917,16.915,12.726,15.507,13.133,16.188,-0.079,1.003,-0.019,0.854,2.411,-0.519,80.000,9345.000,1.000
29.328,13.949,16.072,16.604,10.660,14.001,10.056,14.322,-0.079,1.004,-0.017,0.824,2.472,-0.458,80.000,9346.000,1.000
29.774,13.575,15.594,16.629,9.145,12.843,7.781,13.082,-0.080,1.004,-0.018,0.732,2.716,-0.397,80.000,9347.000,1.000
30.431,12.905,15.764,16.557,8.881,12.254,6.851,12.331,-0.079,1.002,-0.014,0.732,2.686,-0.458,80.000,9348.000,1.000
31.180,12.223,16.285,16.218,9.477,12.175,7.129,12.008,-0.079,1.003,-0.016,0.641,2.808,-0.336,80.000,9349.000,1.000
31.449,12.074,16.329,15.776,9.680,12.042,7.713,11.999,-0.080,1.004,-0.015,0.580,2.808,-0.336,80.000,9350.000,1.000
30.805,12.308,15.390,15.401,8.743,11.232,7.545,11.840,-0.080,1.005,-0.017,0.458,2.869,-0.397,80.000,9351.000,1.000
29.497,12.166,13.949,15.107,7.312,9.829,6.322,11.024,-0.082,1.004,-0.016,0.488,2.960,-0.397,80.000,9352.000,1.000
28.257,11.465,13.086,14.966,6.733,8.777,4.796,9.730,-0.083,1.003,-0.014,0.427,2.899,-0.336,80.000,9353.000,1.000
27.574,11.165,13.410,15.218,7.619,9.067,4.073,8.918,-0.083,1.002,-0.015,0.397,2.869,-0.366,80.000,9354.000,1.000
27.228,12.246,14.466,15.918,9.336,10.722,4.519,9.336,-0.083,1.003,-0.013,0.305,2.838,-0.397,80.000,9355.000,1.000
26.553,14.188,15.232,16.578,10.785,12.626,5.356,10.473,-0.084,1.006,-0.017,0.336,2.838,-0.427,80.000,9356.000,1.000
24.963,15.058,14.944,16.318,11.265,13.302,5.305,10.788,-0.085,1.004,-0.014,0.275,2.777,-0.458,80.000,9357.000,1.000
22.176,13.309,13.332,14.469,10.447,11.937,3.573,9.082,-0.084,1.004,-0.017,0.275,2.747,-0.488,80.000,9358.000,1.000
18.228,9.340,10.419,11.148,8.072,8.864,0.367,5.610,-0.086,1.004,-0.012,0.183,2.594,-0.519,80.000,9359.000,1.000
13.471,5.052,6.556,7.271,4.275,5.214,-3.325,1.804,-0.085,1.004,-0.012,0.275,2.594,-0.610,80.000,9360.000,1.000
8.469,1.919,2.585,3.870,0.101,2.185,-6.332,-1.012,-0.083,1.002,-0.011,0.214,2.563,-0.641,80.000,9361.000,1.000
3.740,-0.121,-0.451,1.380,-2.852,0.438,-7.863,-2.527,-0.083,1.000,-0.011,0.397,2.594,-0.671,80.000,9362.000,1.000
-0.494,-1.883,-2.049,-0.405,-3.721,-0.142,-7.835,-3.176,-0.083,1.000,-0.011,0.305,2.563,-0.702,80.000,9363.000,1.000
-4.390,-3.577,-2.713,-1.834,-3.165,-0.215,-6.792,-3.300,-0.083,0.997,-0.008,0.336,2.472,-0.671,80.000,9364.000,1.000
-8.381,-4.792,-3.573,-3.110,-2.694,-0.518,-5.528,-2.925,-0.083,0.997,-0.009,0.427,2.441,-0.580,80.000,9365.000,1.000
-12.843,-5.680,-5.523,-4.503,-3.304,-1.575,-4.802,-2.372,-0.081,1.000,-0.011,0.519,2.502,-0.549,80.000,9366.000,1.000
-17.659,-7.220,-8.541,-6.399,-4.826,-3.470,-5.080,-2.485,-0.082,1.000,-0.013,0.549,2.502,-0.702,80.000,9367.000,1.000
-22.208,-9.920,-11.801,-8.861,-6.471,-5.700,-6.268,-3.785,-0.081,1.001,-0.010,0.519,2.472,-0.732,80.000,9368.000,1.000
-26.017,-12.963,-14.594,-11.453,-7.894,-7.573,-7.841,-5.781,-0.082,1.001,-0.012,0.580,2.563,-0.671,80.000,9369.000,1.000
-29.297,-15.154,-17.011,-13.769,-9.526,-8.891,-9.417,-7.606,-0.083,1.001,-0.011,0.641,2.472,-0.671,80.000,9370.000,1.000
-32.542,-16.312,-19.464,-15.885,-11.733,-10.016,-11.042,-9.136,-0.085,1.001,-0.014,0.732,2.472,-0.641,80.000,9371.000,1.000
-35.768,-17.256,-21.834,-18.062,-14.016,-11.254,-12.827,-10.952,-0.084,1.000,-0.012,0.793,2.380,-0.610,80.000,9372.000,1.000
-38.422,-18.493,-23.532,-20.174,-15.441,-12.383,-14.519,-13.241,-0.084,1.000,-0.009,0.824,2.472,-0.671,80.000,9373.000,1.000
-40.038,-19.380,-24.289,-21.669,-15.723,-12.901,-15.645,-15.250,-0.087,1.000,-0.010,1.068,2.350,-0.702,80.000,9374.000,1.000
-40.700,-18.912,-24.433,-22.083,-15.444,-12.591,-15.975,-16.006,-0.085,1.001,-0.012,1.099,2.319,-0.702,80.000,9375.000,1.000
-40.899,-17.218,-24.388,-21.556,-15.250,-11.819,-15.790,-15.463,-0.084,1.001,-0.010,1.099,2.258,-0.824,80.000,9376.000,1.000
-41.160,-15.801,-24.278,-20.808,-15.273,-11.300,-15.749,-14.713,-0.085,1.001,-0.011,1.160,2.136,-0.732,80.000,9377.000,1.000
-41.766,-15.951,-24.023,-20.463,-15.351,-11.462,-16.347,-14.857,-0.085,1.000,-0.011,1.251,2.106,-0.824,80.000,9378.000,1.000
-42.676,-17.198,-23.589,-20.422,-15.485,-12.043,-17.477,-15.830,-0.084,1.002,-0.013,1.221,2.014,-0.763,80.000,9379.000,1.000
-43.565,-17.854,-23.022,-20.058,-15.832,-12.450,-18.640,-16.663,-0.083,1.001,-0.014,1.343,2.045,-0.793,80.000,9380.000,1.000
-43.916,-16.977,-22.211,-18.951,-16.235,-12.383,-19.429,-16.699,-0.084,1.001,-0.010,1.312,2.075,-0.763,80.000,9381.000,1.000
-43.233,-15.228,-20.793,-17.280,-16.055,-11.968,-19.650,-16.146,-0.085,1.002,-0.012,1.312,2.075,-0.763,80.000,9382.000,1.000
-41.340,-13.669,-18.488,-15.466,-14.703,-11.351,-19.070,-15.370,-0.085,1.001,-0.012,1.343,2.014,-0.763,80.000,9383.000,1.000
-38.529,-12.288,-15.538,-13.624,-12.288,-10.386,-17.328,-14.102,-0.083,1.001,-0.015,1.282,2.045,-0.671,80.000,9384.000,1.000
-35.383,-10.263,-12.693,-11.562,-9.515,-8.845,-14.279,-11.766,-0.084,1.002,-0.013,1.373,2.045,-0.671,80.000,9385.000,1.000
-32.295,-7.323,-10.544,-9.181,-6.821,-6.722,-10.255,-8.421,-0.084,1.000,-0.014,1.343,1.984,-0.671,80.000,9386.000,1.000
-29.154,-4.235,-8.919,-6.662,-3.896,-4.153,-5.809,-4.886,-0.082,1.002,-0.013,1.373,2.075,-0.610,80.000,9387.000,1.000
-25.729,-1.889,-7.168,-4.326,-0.380,-1.263,-1.378,-1.964,-0.083,1.004,-0.012,1.282,2.106,-0.610,80.000,9388.000,1.000
-22.283,-0.333,-5.017,-2.419,3.201,1.699,2.658,0.177,-0.084,1.004,-0.013,1.282,2.136,-0.641,80.000,9389.000,1.000
-19.694,0.807,-3.017,-1.189,5.552,4.094,5.647,1.618,-0.082,1.006,-0.010,1.129,2.167,-0.702,80.000,9390.000,1.000
-18.949,1.119,-2.153,-1.195,5.637,4.923,6.627,1.901,-0.084,1.006,-0.012,1.099,2.167,-0.641,80.000,9391.000,1.000
-20.389,-0.590,-2.997,-3.074,3.505,3.415,5.015,0.226,-0.083,1.007,-0.009,1.007,2.258,-0.488,80.000,9392.000,1.000
-23.322,-4.723,-5.248,-6.654,0.149,-0.262,1.391,-3.292,-0.082,1.007,-0.011,0.793,2.167,-0.610,80.000,9393.000,1.000
-26.455,-9.866,-8.089,-10.598,-3.365,-4.957,-2.652,-7.059,-0.082,1.005,-0.010,0.793,2.197,-0.488,80.000,9394.000,1.000
-28.747,-13.856,-10.840,-13.324,-6.507,-9.306,-5.636,-9.181,-0.084,1.004,-0.010,0.793,2.289,-0.488,80.000,9395.000,1.000
-29.879,-15.781,-13.157,-14.274,-9.063,-12.495,-7.097,-9.148,-0.085,1.004,-0.011,0.763,2.319,-0.488,80.000,9396.000,1.000
-30.015,-16.441,-14.734,-14.096,-10.669,-14.286,-7.372,-7.985,-0.086,1.002,-0.009,0.763,2.472,-0.458,80.000,9397.000,1.000
-29.366,-16.836,-15.212,-13.641,-10.968,-14.645,-6.803,-6.835,-0.085,1.000,-0.009,0.732,2.533,-0.397,80.000,9398.000,1.000
-28.155,-16.816,-14.563,-13.092,-10.153,-13.623,-5.426,-5.777,-0.086,1.001,-0.009,0.824,2.563,-0.488,80.000,9399.000,1.000
-26.766,-15.582,-13.318,-12.122,-8.928,-11.536,-3.300,-4.179,-0.085,1.000,-0.008,0.793,2.533,-0.641,80.000,9400.000,1.000
-25.662,-13.224,-12.211,-10.667,-7.818,-9.005,-0.846,-1.907,-0.082,1.000,-0.010,0.641,2.594,-0.702,80.000,9401.000,1.000
-25.083,-11.074,-11.632,-9.222,-6.769,-6.675,1.321,0.232,-0.082,1.000,-0.012,0.732,2.747,-0.641,80.000,9402.000,1.000
-24.869,-10.253,-11.438,-8.272,-5.540,-4.793,2.908,1.443,-0.083,1.002,-0.010,0.763,2.808,-0.580,80.000,9403.000,1.000
-24.625,-10.315,-11.263,-7.704,-4.290,-3.129,4.163,1.912,-0.083,1.001,-0.012,0.763,2.838,-0.610,80.000,9404.000,1.000
-24.215,-9.971,-11.037,-7.154,-3.631,-1.494,5.334,2.360,-0.083,1.001,-0.010,0.793,2.838,-0.702,80.000,9405.000,1.000
-23.984,-8.964,-11.063,-6.818,-4.047,-0.156,6.136,2.822,-0.082,1.000,-0.014,0.793,2.838,-0.671,80.000,9406.000,1.000
-24.258,-8.306,-11.443,-7.338,-5.210,0.625,6.167,2.580,-0.081,1.000,-0.017,0.763,2.930,-0.641,80.000,9407.000,1.000
-24.715,-8.533,-11.615,-8.718,-6.023,1.244,5.752,1.473,-0.082,1.003,-0.013,0.824,2.960,-0.641,80.000,9408.000,1.000
-24.616,-8.608,-10.866,-9.871,-5.568,2.412,5.861,0.610,-0.082,1.002,-0.012,0.854,3.052,-0.641,80.000,9409.000,1.000
-23.671,-7.174,-9.220,-9.688,-3.997,4.194,7.005,1.239,-0.083,1.002,-0.009,0.763,3.174,-0.580,80.000,9410.000,1.000
-22.294,-4.471,-7.457,-8.303,-2.273,5.747,8.496,3.127,-0.082,1.000,-0.009,0.824,3.143,-0.641,80.000,9411.000,1.000
-20.940,-2.239,-6.209,-6.848,-1.116,6.184,9.135,4.683,-0.083,1.001,-0.008,0.854,3.265,-0.641,80.000,9412.000,1.000
-19.500,-1.616,-5.310,-6.046,-0.418,5.660,8.633,4.832,-0.085,1.002,-0.008,0.885,3.235,-0.671,80.000,9413.000,1.000
-17.487,-1.715,-4.149,-5.391,0.322,5.358,7.993,4.266,-0.085,1.003,-0.010,0.854,3.204,-0.458,80.000,9414.000,1.000
-14.692,-0.784,-2.498,-3.887,1.265,6.264,8.327,4.452,-0.086,1.002,-0.011,0.824,3.326,-0.458,80.000,9415.000,1.000
-11.546,1.463,-0.800,-1.409,2.134,8.134,9.570,5.710,-0.086,1.002,-0.011,0.977,3.296,-0.427,80.000,9416.000,1.000
-8.855,3.331,0.294,0.945,2.621,9.740,10.543,6.800,-0.086,1.005,-0.007,0.793,3.296,-0.488,80.000,9417.000,1.000
-7.241,3.071,0.433,1.891,2.537,9.922,10.063,6.396,-0.089,1.002,-0.007,0.885,3.235,-0.519,80.000,9418.000,1.000
-6.793,0.872,-0.366,1.176,1.683,8.409,7.913,4.594,-0.088,1.001,-0.006,0.946,3.052,-0.610,80.000,9419.000,1.000
-7.103,-1.457,-1.851,-0.336,0.003,5.852,4.851,2.711,-0.087,1.002,-0.010,1.068,2.930,-0.519,80.000,9420.000,1.000
-7.522,-2.535,-3.539,-1.693,-2.047,3.228,1.881,1.736,-0.088,1.000,-0.006,1.068,3.021,-0.580,80.000,9421.000,1.000
-7.325,-2.450,-4.673,-2.595,-3.478,1.324,-0.290,1.483,-0.088,0.999,-0.006,1.007,3.021,-0.519,80.000,9422.000,1.000
-5.904,-1.760,-4.509,-3.075,-3.400,0.638,-1.208,1.360,-0.087,0.998,-0.006,1.160,2.838,-0.519,80.000,9423.000,1.000
-3.155,-0.325,-2.934,-2.913,-1.807,1.306,-0.626,1.449,-0.089,1.000,-0.008,1.221,2.869,-0.519,80.000,9424.000,1.000
0.292,2.265,-0.669,-1.781,0.399,2.926,1.246,2.318,-0.088,0.999,-0.011,1.373,2.838,-0.488,80.000,9425.000,1.000
3.568,5.523,1.409,0.254,2.366,4.721,3.702,4.058,-0.086,0.998,-0.010,1.404,2.899,-0.580,80.000,9426.000,1.000
6.375,8.138,3.115,2.758,4.162,6.204,6.075,6.127,-0.089,0.998,-0.012,1.434,2.716,-0.488,80.000,9427.000,1.000
9.042,9.281,4.843,5.370,6.350,7.530,8.170,8.094,-0.087,0.999,-0.010,1.526,2.808,-0.366,80.000,9428.000,1.000
11.611,9.277,6.550,7.786,8.680,8.835,9.875,9.937,-0.086,1.003,-0.012,1.465,2.747,-0.366,80.000,9429.000,1.000
13.330,8.805,7.344,9.475,9.819,9.521,10.659,11.500,-0.087,1.001,-0.014,1.587,2.533,-0.397,80.000,9430.000,1.000
13.454,7.922,6.476,9.894,8.826,8.796,10.025,12.203,-0.088,1.002,-0.013,1.587,2.533,-0.366,80.000,9431.000,1.000
12.244,6.206,4.396,9.021,6.393,6.777,8.311,11.503,-0.087,1.003,-0.010,1.648,2.411,-0.336,80.000,9432.000,1.000
10.719,3.656,2.352,7.445,4.079,4.477,6.516,9.451,-0.087,1.002,-0.010,1.709,2.350,-0.275,80.000,9433.000,1.000
9.591,1.163,1.123,5.956,2.632,2.741,5.310,6.735,-0.086,1.003,-0.012,1.740,2.228,-0.244,80.000,9434.000,1.000
8.846,-0.159,0.554,5.076,1.580,1.545,4.468,4.113,-0.088,1.002,-0.010,1.556,2.228,-0.336,80.000,9435.000,1.000
8.344,-0.058,0.301,4.847,0.379,0.379,3.327,1.816,-0.085,1.002,-0.010,1.587,2.319,-0.305,80.000,9436.000,1.000
8.481,0.797,0.662,5.029,-0.577,-0.856,1.673,-0.363,-0.085,1.003,-0.011,1.678,2.258,-0.366,80.000,9437.000,1.000
9.960,1.886,2.316,5.528,-0.417,-1.588,0.051,-2.386,-0.085,1.003,-0.010,1.617,2.258,-0.275,80.000,9438.000,1.000
12.930,3.515,5.332,6.546,0.969,-1.276,-0.831,-3.695,-0.086,1.004,-0.011,1.617,2.167,-0.305,80.000,9439.000,1.000
16.603,6.142,8.814,8.249,2.667,-0.160,-0.883,-3.803,-0.083,1.000,-0.008,1.678,2.045,-0.366,80.000,9440.000,1.000
19.814,9.214,11.625,10.277,3.693,0.776,-0.822,-3.157,-0.085,1.001,-0.010,1.617,2.014,-0.305,80.000,9441.000,1.000
21.861,11.234,13.270,11.749,3.843,0.551,-1.600,-3.073,-0.084,1.001,-0.010,1.709,2.197,-0.244,80.000,9442.000,1.000
22.853,11.351,14.069,12.027,3.596,-0.982,-3.504,-4.461,-0.083,1.002,-0.012,1.709,2.167,-0.275,80.000,9443.000,1.000
23.309,10.479,14.592,11.401,3.387,-2.985,-5.833,-6.748,-0.083,1.002,-0.012,1.770,2.197,-0.336,80.000,9444.000,1.000
23.496,10.287,15.037,10.776,3.216,-4.329,-7.534,-8.447,-0.083,1.001,-0.013,1.770,2.319,-0.336,80.000,9445.000,1.000
23.282,11.267,15.239,10.702,3.039,-4.375,-7.958,-8.651,-0.082,1.000,-0.011,1.770,2.289,-0.366,80.000,9446.000,1.000
22.583,12.345,15.147,10.979,3.198,-3.148,-7.014,-7.662,-0.083,1.003,-0.010,1.892,2.380,-0.305,80.000,9447.000,1.000
21.656,12.430,14.979,11.119,4.069,-1.016,-4.909,-6.245,-0.083,1.004,-0.012,1.923,2.350,-0.427,80.000,9448.000,1.000
20.733,11.700,14.738,10.864,5.282,1.511,-2.074,-4.789,-0.081,1.004,-0.017,1.984,2.380,-0.397,80.000,9449.000,1.000
19.514,10.978,13.818,10.075,5.686,3.673,0.655,-3.460,-0.082,1.005,-0.016,2.014,2.319,-0.458,80.000,9450.000,1.000
17.375,10.243,11.487,8.416,4.394,4.538,2.102,-2.859,-0.083,1.004,-0.014,1.953,2.441,-0.397,80.000,9451.000,1.000
14.099,8.436,7.719,5.503,1.650,3.499,1.394,-3.884,-0.082,1.003,-0.013,1.923,2.411,-0.397,80.000,9452.000,1.000
10.147,4.786,3.245,1.443,-1.572,0.651,-1.394,-6.734,-0.083,1.003,-0.015,1.862,2.533,-0.458,80.000,9453.000,1.000
6.254,-0.011,-1.115,-2.847,-4.583,-3.312,-5.267,-10.298,-0.083,1.003,-0.016,1.801,2.563,-0.427,80.000,9454.000,1.000
3.045,-4.218,-4.854,-6.060,-7.229,-7.415,-8.901,-12.856,-0.082,1.004,-0.015,1.648,2.686,-0.397,80.000,9455.000,1.000
0.993,-6.644,-7.572,-7.403,-9.277,-10.709,-11.299,-13.485,-0.083,1.002,-0.016,1.770,2.747,-0.427,80.000,9456.000,1.000
0.443,-7.461,-8.767,-7.086,-10.084,-12.509,-12.066,-12.584,-0.085,1.000,-0.017,1.831,2.625,-0.397,80.000,9457.000,1.000
1.479,-7.403,-8.130,-5.904,-9.207,-12.567,-11.310,-11.038,-0.083,1.000,-0.015,1.801,2.777,-0.580,80.000,9458.000,1.000
3.687,-6.665,-6.104,-4.510,-7.240,-11.266,-9.537,-9.284,-0.085,0.999,-0.015,1.862,2.777,-0.458,80.000,9459.000,1.000
6.215,-5.061,-3.850,-3.169,-5.593,-9.597,-7.599,-7.391,-0.085,0.999,-0.017,1.862,2.869,-0.519,80.000,9460.000,1.000
8.241,-3.006,-2.403,-2.023,-5.208,-8.632,-6.399,-5.717,-0.084,0.999,-0.014,1.923,2.777,-0.427,80.000,9461.000,1.000
9.424,-1.667,-1.939,-1.280,-5.695,-8.779,-6.323,-4.932,-0.085,1.001,-0.018,1.862,2.808,-0.397,80.000,9462.000,1.000
9.962,-1.769,-1.907,-0.969,-5.905,-9.521,-6.909,-5.204,-0.085,1.000,-0.018,1.892,2.838,-0.397,80.000,9463.000,1.000
10.298,-2.582,-1.725,-0.645,-5.168,-9.888,-7.191,-5.656,-0.086,1.001,-0.015,1.953,2.808,-0.488,80.000,9464.000,1.000
10.727,-2.672,-1.275,0.309,-3.797,-9.339,-6.557,-5.122,-0.087,1.000,-0.015,1.831,2.899,-0.549,80.000,9465.000,1.000
11.268,-1.643,-0.787,1.950,-2.474,-8.230,-5.289,-3.498,-0.087,1.000,-0.019,1.892,2.869,-0.549,80.000,9466.000,1.000
11.885,-0.579,-0.359,3.612,-1.429,-7.391,-4.208,-1.917,-0.086,1.001,-0.016,1.862,2.777,-0.610,80.000,9467.000,1.000
12.676,-0.543,0.269,4.655,-0.403,-7.217,-3.750,-1.372,-0.087,1.002,-0.016,1.801,2.838,-0.641,80.000,9468.000,1.000
